PE UV       SUBTECH     SPECTRUM    ASCII       PEDS        4.00        
   -1
GNRs_ctab_160ul_orig.Sample.asc
13/12/09
16:59:48.00
13/12/09
16:59:48.00
Administrator

350.000000
1
Lambda 25
1
PerkinElmer UV WinLab 6.0.3.0730 / Lambda25 1.27

480
2
1
0
0
Both on
1
1
1
6x Cell Changer
0
0
0
0
 
 
0
0
0
0
0
 
 
 
0
 
0
326
0
 
0
 
 
 
0
0
0
 
0
 
 
 
0
 
 
0
0
0
0
0
 
 
 
 
0
0


#HDR
-1
-1
#GR
nm
A
1.0
0.0
1100.000000
-1.000000
751
8
1.536021
0.056010
#DATA
1100.000000	0.056240
1099.000000	0.056010
1098.000000	0.056897
1097.000000	0.057166
1096.000000	0.057098
1095.000000	0.057039
1094.000000	0.057580
1093.000000	0.058291
1092.000000	0.057836
1091.000000	0.058145
1090.000000	0.058532
1089.000000	0.058684
1088.000000	0.058483
1087.000000	0.059561
1086.000000	0.059460
1085.000000	0.060163
1084.000000	0.060284
1083.000000	0.060573
1082.000000	0.060867
1081.000000	0.061326
1080.000000	0.061976
1079.000000	0.061949
1078.000000	0.062786
1077.000000	0.063137
1076.000000	0.063178
1075.000000	0.063957
1074.000000	0.064340
1073.000000	0.064725
1072.000000	0.065447
1071.000000	0.065569
1070.000000	0.065886
1069.000000	0.066235
1068.000000	0.066770
1067.000000	0.067122
1066.000000	0.067848
1065.000000	0.068243
1064.000000	0.068425
1063.000000	0.069105
1062.000000	0.069524
1061.000000	0.069825
1060.000000	0.070434
1059.000000	0.070649
1058.000000	0.071239
1057.000000	0.071411
1056.000000	0.071912
1055.000000	0.072358
1054.000000	0.072739
1053.000000	0.073533
1052.000000	0.073941
1051.000000	0.074389
1050.000000	0.074878
1049.000000	0.075401
1048.000000	0.075961
1047.000000	0.076692
1046.000000	0.077420
1045.000000	0.077892
1044.000000	0.078527
1043.000000	0.079161
1042.000000	0.079812
1041.000000	0.080320
1040.000000	0.081121
1039.000000	0.081651
1038.000000	0.082537
1037.000000	0.082995
1036.000000	0.083854
1035.000000	0.084731
1034.000000	0.085280
1033.000000	0.085951
1032.000000	0.086530
1031.000000	0.087333
1030.000000	0.088075
1029.000000	0.088821
1028.000000	0.089471
1027.000000	0.090214
1026.000000	0.091089
1025.000000	0.091812
1024.000000	0.092841
1023.000000	0.093327
1022.000000	0.094211
1021.000000	0.095109
1020.000000	0.095812
1019.000000	0.096791
1018.000000	0.097713
1017.000000	0.098494
1016.000000	0.099553
1015.000000	0.100680
1014.000000	0.101546
1013.000000	0.102633
1012.000000	0.103475
1011.000000	0.104501
1010.000000	0.105563
1009.000000	0.106747
1008.000000	0.107723
1007.000000	0.108653
1006.000000	0.109565
1005.000000	0.110738
1004.000000	0.111665
1003.000000	0.112771
1002.000000	0.113731
1001.000000	0.114918
1000.000000	0.116092
999.000000	0.117281
998.000000	0.118314
997.000000	0.119510
996.000000	0.120777
995.000000	0.121785
994.000000	0.123113
993.000000	0.124279
992.000000	0.125550
991.000000	0.126745
990.000000	0.128188
989.000000	0.129625
988.000000	0.131080
987.000000	0.132620
986.000000	0.133936
985.000000	0.135631
984.000000	0.137068
983.000000	0.138691
982.000000	0.140259
981.000000	0.141798
980.000000	0.143451
979.000000	0.145182
978.000000	0.146670
977.000000	0.148253
976.000000	0.150089
975.000000	0.151695
974.000000	0.153469
973.000000	0.155278
972.000000	0.157103
971.000000	0.158749
970.000000	0.160648
969.000000	0.162639
968.000000	0.164947
967.000000	0.166898
966.000000	0.169068
965.000000	0.171143
964.000000	0.173504
963.000000	0.175529
962.000000	0.178112
961.000000	0.180410
960.000000	0.182683
959.000000	0.185327
958.000000	0.187938
957.000000	0.190670
956.000000	0.193598
955.000000	0.196533
954.000000	0.199538
953.000000	0.202622
952.000000	0.205454
951.000000	0.208358
950.000000	0.211541
949.000000	0.214381
948.000000	0.217607
947.000000	0.220746
946.000000	0.223946
945.000000	0.227021
944.000000	0.230198
943.000000	0.233776
942.000000	0.237206
941.000000	0.240807
940.000000	0.244473
939.000000	0.248116
938.000000	0.252071
937.000000	0.256068
936.000000	0.260181
935.000000	0.264218
934.000000	0.268488
933.000000	0.272855
932.000000	0.277318
931.000000	0.281937
930.000000	0.286701
929.000000	0.291307
928.000000	0.296404
927.000000	0.301330
926.000000	0.306735
925.000000	0.312330
924.000000	0.317920
923.000000	0.323433
922.000000	0.329160
921.000000	0.334749
920.000000	0.340578
919.000000	0.346363
918.000000	0.352343
917.000000	0.358131
916.000000	0.364207
915.000000	0.370230
914.000000	0.376534
913.000000	0.383025
912.000000	0.389667
911.000000	0.396629
910.000000	0.403547
909.000000	0.410868
908.000000	0.417945
907.000000	0.425311
906.000000	0.433046
905.000000	0.440935
904.000000	0.449056
903.000000	0.457247
902.000000	0.465990
901.000000	0.474309
900.000000	0.482782
899.000000	0.491372
898.000000	0.500685
897.000000	0.510246
896.000000	0.520376
895.000000	0.530306
894.000000	0.540186
893.000000	0.550270
892.000000	0.560451
891.000000	0.570424
890.000000	0.580533
889.000000	0.590593
888.000000	0.600695
887.000000	0.610975
886.000000	0.621664
885.000000	0.632444
884.000000	0.643491
883.000000	0.654661
882.000000	0.666374
881.000000	0.678155
880.000000	0.690178
879.000000	0.702167
878.000000	0.714304
877.000000	0.727016
876.000000	0.739934
875.000000	0.752812
874.000000	0.765764
873.000000	0.779036
872.000000	0.792585
871.000000	0.806229
870.000000	0.819472
869.000000	0.833091
868.000000	0.846810
867.000000	0.861090
866.000000	0.875668
865.000000	0.889884
864.000000	0.904586
863.000000	0.918707
862.000000	0.933035
861.000000	0.947319
860.000000	0.961489
859.000000	0.975675
858.000000	0.990138
857.000000	1.004439
856.000000	1.019077
855.000000	1.033579
854.000000	1.048125
853.000000	1.062923
852.000000	1.077923
851.000000	1.092370
850.000000	1.107556
849.000000	1.122200
848.000000	1.136393
847.000000	1.151582
846.000000	1.166331
845.000000	1.180853
844.000000	1.194973
843.000000	1.209254
842.000000	1.223759
841.000000	1.238704
840.000000	1.253055
839.000000	1.267059
838.000000	1.280925
837.000000	1.294781
836.000000	1.308496
835.000000	1.321498
834.000000	1.334732
833.000000	1.347117
832.000000	1.359695
831.000000	1.371252
830.000000	1.382777
829.000000	1.393806
828.000000	1.404869
827.000000	1.414514
826.000000	1.425395
825.000000	1.435152
824.000000	1.444594
823.000000	1.453814
822.000000	1.462851
821.000000	1.470620
820.000000	1.478146
819.000000	1.485162
818.000000	1.492741
817.000000	1.499301
816.000000	1.505509
815.000000	1.510522
814.000000	1.516099
813.000000	1.520166
812.000000	1.524828
811.000000	1.527054
810.000000	1.530249
809.000000	1.532762
808.000000	1.534596
807.000000	1.535080
806.000000	1.535864
805.000000	1.536021
804.000000	1.535026
803.000000	1.532974
802.000000	1.531212
801.000000	1.528057
800.000000	1.525498
799.000000	1.521169
798.000000	1.516130
797.000000	1.511308
796.000000	1.504237
795.000000	1.494684
794.000000	1.487761
793.000000	1.479497
792.000000	1.471759
791.000000	1.463361
790.000000	1.454855
789.000000	1.445498
788.000000	1.435694
787.000000	1.425058
786.000000	1.415109
785.000000	1.403617
784.000000	1.392550
783.000000	1.380964
782.000000	1.367947
781.000000	1.354735
780.000000	1.341153
779.000000	1.326334
778.000000	1.312366
777.000000	1.297843
776.000000	1.283166
775.000000	1.268397
774.000000	1.253107
773.000000	1.237393
772.000000	1.221451
771.000000	1.204717
770.000000	1.188013
769.000000	1.171168
768.000000	1.153677
767.000000	1.135843
766.000000	1.117299
765.000000	1.099072
764.000000	1.080193
763.000000	1.061112
762.000000	1.042961
761.000000	1.024728
760.000000	1.006185
759.000000	0.987775
758.000000	0.969067
757.000000	0.950559
756.000000	0.932334
755.000000	0.913688
754.000000	0.895745
753.000000	0.877236
752.000000	0.858717
751.000000	0.840172
750.000000	0.821569
749.000000	0.803617
748.000000	0.786077
747.000000	0.768719
746.000000	0.751899
745.000000	0.735423
744.000000	0.718771
743.000000	0.702602
742.000000	0.686854
741.000000	0.670974
740.000000	0.655330
739.000000	0.639990
738.000000	0.624788
737.000000	0.610212
736.000000	0.595992
735.000000	0.582154
734.000000	0.568006
733.000000	0.554121
732.000000	0.540779
731.000000	0.527503
730.000000	0.514940
729.000000	0.502474
728.000000	0.490175
727.000000	0.477989
726.000000	0.466289
725.000000	0.454818
724.000000	0.443486
723.000000	0.432357
722.000000	0.421535
721.000000	0.410843
720.000000	0.400647
719.000000	0.390751
718.000000	0.381292
717.000000	0.372299
716.000000	0.363515
715.000000	0.355103
714.000000	0.346747
713.000000	0.338720
712.000000	0.330947
711.000000	0.323424
710.000000	0.316154
709.000000	0.309147
708.000000	0.302279
707.000000	0.295432
706.000000	0.289162
705.000000	0.283108
704.000000	0.277150
703.000000	0.271355
702.000000	0.265508
701.000000	0.259961
700.000000	0.254561
699.000000	0.249617
698.000000	0.244719
697.000000	0.239954
696.000000	0.235454
695.000000	0.230856
694.000000	0.226419
693.000000	0.221997
692.000000	0.217853
691.000000	0.213959
690.000000	0.210230
689.000000	0.206471
688.000000	0.203099
687.000000	0.199787
686.000000	0.196635
685.000000	0.193437
684.000000	0.190150
683.000000	0.187467
682.000000	0.184609
681.000000	0.181908
680.000000	0.179344
679.000000	0.176844
678.000000	0.174495
677.000000	0.172319
676.000000	0.170196
675.000000	0.168049
674.000000	0.166098
673.000000	0.164302
672.000000	0.162463
671.000000	0.160788
670.000000	0.159151
669.000000	0.157454
668.000000	0.155962
667.000000	0.154490
666.000000	0.152983
665.000000	0.151503
664.000000	0.150341
663.000000	0.148993
662.000000	0.147779
661.000000	0.146814
660.000000	0.145638
659.000000	0.144623
658.000000	0.143713
657.000000	0.142865
656.000000	0.142044
655.000000	0.141201
654.000000	0.140449
653.000000	0.139763
652.000000	0.139043
651.000000	0.138484
650.000000	0.137901
649.000000	0.137421
648.000000	0.136902
647.000000	0.136456
646.000000	0.136033
645.000000	0.135817
644.000000	0.135414
643.000000	0.135185
642.000000	0.134923
641.000000	0.134625
640.000000	0.134608
639.000000	0.134481
638.000000	0.134396
637.000000	0.134304
636.000000	0.134392
635.000000	0.134421
634.000000	0.134579
633.000000	0.134752
632.000000	0.134906
631.000000	0.135075
630.000000	0.135271
629.000000	0.135550
628.000000	0.135931
627.000000	0.136263
626.000000	0.136717
625.000000	0.137299
624.000000	0.137758
623.000000	0.138419
622.000000	0.138947
621.000000	0.139741
620.000000	0.140431
619.000000	0.141253
618.000000	0.142045
617.000000	0.142869
616.000000	0.143839
615.000000	0.144833
614.000000	0.146047
613.000000	0.147026
612.000000	0.148246
611.000000	0.149491
610.000000	0.150847
609.000000	0.152170
608.000000	0.153549
607.000000	0.155177
606.000000	0.156732
605.000000	0.158500
604.000000	0.160187
603.000000	0.162043
602.000000	0.163846
601.000000	0.166021
600.000000	0.168172
599.000000	0.170304
598.000000	0.172779
597.000000	0.175067
596.000000	0.177531
595.000000	0.180127
594.000000	0.183006
593.000000	0.185884
592.000000	0.188869
591.000000	0.191930
590.000000	0.195355
589.000000	0.198753
588.000000	0.202239
587.000000	0.205957
586.000000	0.209757
585.000000	0.213843
584.000000	0.217893
583.000000	0.222095
582.000000	0.226517
581.000000	0.231008
580.000000	0.235772
579.000000	0.240781
578.000000	0.245906
577.000000	0.251103
576.000000	0.256706
575.000000	0.262392
574.000000	0.268261
573.000000	0.273966
572.000000	0.280145
571.000000	0.286333
570.000000	0.292885
569.000000	0.299582
568.000000	0.306307
567.000000	0.313008
566.000000	0.320014
565.000000	0.326633
564.000000	0.333581
563.000000	0.340450
562.000000	0.347320
561.000000	0.354409
560.000000	0.361462
559.000000	0.368419
558.000000	0.375488
557.000000	0.382322
556.000000	0.389319
555.000000	0.395833
554.000000	0.402260
553.000000	0.408473
552.000000	0.414577
551.000000	0.420519
550.000000	0.426241
549.000000	0.431775
548.000000	0.437084
547.000000	0.442195
546.000000	0.447265
545.000000	0.452031
544.000000	0.456386
543.000000	0.460568
542.000000	0.464461
541.000000	0.468232
540.000000	0.471686
539.000000	0.474972
538.000000	0.477973
537.000000	0.480737
536.000000	0.483367
535.000000	0.485644
534.000000	0.487840
533.000000	0.489789
532.000000	0.491539
531.000000	0.493112
530.000000	0.494558
529.000000	0.495813
528.000000	0.496859
527.000000	0.497745
526.000000	0.498514
525.000000	0.498962
524.000000	0.499275
523.000000	0.499343
522.000000	0.499529
521.000000	0.499322
520.000000	0.498988
519.000000	0.498320
518.000000	0.497584
517.000000	0.496669
516.000000	0.495370
515.000000	0.493960
514.000000	0.492247
513.000000	0.490402
512.000000	0.488243
511.000000	0.485807
510.000000	0.483144
509.000000	0.480181
508.000000	0.477047
507.000000	0.473677
506.000000	0.470130
505.000000	0.466398
504.000000	0.462405
503.000000	0.458194
502.000000	0.453860
501.000000	0.449473
500.000000	0.445011
499.000000	0.440374
498.000000	0.435888
497.000000	0.431412
496.000000	0.427079
495.000000	0.422699
494.000000	0.418528
493.000000	0.414588
492.000000	0.410853
491.000000	0.407222
490.000000	0.403696
489.000000	0.400341
488.000000	0.397230
487.000000	0.394351
486.000000	0.391506
485.000000	0.389124
484.000000	0.386867
483.000000	0.384512
482.000000	0.382638
481.000000	0.380951
480.000000	0.379274
479.000000	0.377805
478.000000	0.376546
477.000000	0.375467
476.000000	0.374399
475.000000	0.373447
474.000000	0.372693
473.000000	0.371954
472.000000	0.371396
471.000000	0.370916
470.000000	0.370445
469.000000	0.370069
468.000000	0.369823
467.000000	0.369587
466.000000	0.369254
465.000000	0.369215
464.000000	0.369272
463.000000	0.369181
462.000000	0.369309
461.000000	0.369439
460.000000	0.369648
459.000000	0.369775
458.000000	0.370044
457.000000	0.370437
456.000000	0.370779
455.000000	0.370943
454.000000	0.371436
453.000000	0.371966
452.000000	0.372481
451.000000	0.372956
450.000000	0.373374
449.000000	0.373847
448.000000	0.374341
447.000000	0.374939
446.000000	0.375480
445.000000	0.376094
444.000000	0.376682
443.000000	0.377250
442.000000	0.378039
441.000000	0.378412
440.000000	0.379123
439.000000	0.379871
438.000000	0.380462
437.000000	0.381180
436.000000	0.381827
435.000000	0.382449
434.000000	0.383200
433.000000	0.383931
432.000000	0.384581
431.000000	0.385268
430.000000	0.385874
429.000000	0.386806
428.000000	0.387362
427.000000	0.388248
426.000000	0.389001
425.000000	0.390003
424.000000	0.390575
423.000000	0.391336
422.000000	0.392140
421.000000	0.392935
420.000000	0.393812
419.000000	0.394706
418.000000	0.395463
417.000000	0.396416
416.000000	0.397394
415.000000	0.398196
414.000000	0.399102
413.000000	0.399997
412.000000	0.400964
411.000000	0.401922
410.000000	0.402804
409.000000	0.403907
408.000000	0.404705
407.000000	0.405750
406.000000	0.406624
405.000000	0.407706
404.000000	0.408645
403.000000	0.409579
402.000000	0.410419
401.000000	0.411518
400.000000	0.412449
399.000000	0.413276
398.000000	0.414388
397.000000	0.415396
396.000000	0.416485
395.000000	0.417441
394.000000	0.418593
393.000000	0.419407
392.000000	0.420259
391.000000	0.421117
390.000000	0.422068
389.000000	0.422886
388.000000	0.424022
387.000000	0.424957
386.000000	0.425957
385.000000	0.426860
384.000000	0.427627
383.000000	0.428295
382.000000	0.429251
381.000000	0.430705
380.000000	0.431584
379.000000	0.431860
378.000000	0.433262
377.000000	0.433873
376.000000	0.434542
375.000000	0.435904
374.000000	0.436347
373.000000	0.437604
372.000000	0.438131
371.000000	0.439072
370.000000	0.439780
369.000000	0.440632
368.000000	0.441448
367.000000	0.442087
366.000000	0.442846
365.000000	0.443354
364.000000	0.444389
363.000000	0.444814
362.000000	0.445301
361.000000	0.445954
360.000000	0.446508
359.000000	0.446951
358.000000	0.447576
357.000000	0.447892
356.000000	0.448541
355.000000	0.449044
354.000000	0.449768
353.000000	0.450202
352.000000	0.450709
351.000000	0.451346
350.000000	0.451941
