PE UV       SUBTECH     SPECTRUM    ASCII       PEDS        4.00        
   -1
GNRs_ctab_160ul_0W_5mins.Sample.asc
13/12/09
17:03:12.00
13/12/09
17:03:12.00
Administrator

350.000000
1
Lambda 25
1
PerkinElmer UV WinLab 6.0.3.0730 / Lambda25 1.27

480
2
1
0
0
Both on
1
1
1
6x Cell Changer
0
0
0
0
 
 
0
0
0
0
0
 
 
 
0
 
0
326
0
 
0
 
 
 
0
0
0
 
0
 
 
 
0
 
 
0
0
0
0
0
 
 
 
 
0
0


#HDR
-1
-1
#GR
nm
A
1.0
0.0
1100.000000
-1.000000
751
8
1.205052
0.054715
#DATA
1100.000000	0.054715
1099.000000	0.054801
1098.000000	0.054917
1097.000000	0.055457
1096.000000	0.055076
1095.000000	0.055266
1094.000000	0.055365
1093.000000	0.056080
1092.000000	0.055873
1091.000000	0.056349
1090.000000	0.056903
1089.000000	0.056746
1088.000000	0.056661
1087.000000	0.057586
1086.000000	0.057133
1085.000000	0.057803
1084.000000	0.057984
1083.000000	0.058367
1082.000000	0.058753
1081.000000	0.059066
1080.000000	0.059076
1079.000000	0.059375
1078.000000	0.060035
1077.000000	0.060561
1076.000000	0.060587
1075.000000	0.061189
1074.000000	0.061444
1073.000000	0.061749
1072.000000	0.062440
1071.000000	0.062511
1070.000000	0.062839
1069.000000	0.063234
1068.000000	0.063624
1067.000000	0.064077
1066.000000	0.064578
1065.000000	0.064641
1064.000000	0.064988
1063.000000	0.065369
1062.000000	0.066081
1061.000000	0.066389
1060.000000	0.066726
1059.000000	0.067140
1058.000000	0.067333
1057.000000	0.067627
1056.000000	0.067943
1055.000000	0.068420
1054.000000	0.068856
1053.000000	0.069388
1052.000000	0.069747
1051.000000	0.070282
1050.000000	0.070594
1049.000000	0.070931
1048.000000	0.071495
1047.000000	0.072093
1046.000000	0.072666
1045.000000	0.073027
1044.000000	0.073546
1043.000000	0.074059
1042.000000	0.074624
1041.000000	0.075153
1040.000000	0.075724
1039.000000	0.076282
1038.000000	0.076984
1037.000000	0.077453
1036.000000	0.078234
1035.000000	0.078850
1034.000000	0.079255
1033.000000	0.079972
1032.000000	0.080356
1031.000000	0.081059
1030.000000	0.081647
1029.000000	0.082246
1028.000000	0.082839
1027.000000	0.083490
1026.000000	0.084294
1025.000000	0.084954
1024.000000	0.085691
1023.000000	0.086242
1022.000000	0.086904
1021.000000	0.087681
1020.000000	0.088228
1019.000000	0.089107
1018.000000	0.089696
1017.000000	0.090641
1016.000000	0.091385
1015.000000	0.092258
1014.000000	0.092958
1013.000000	0.093869
1012.000000	0.094746
1011.000000	0.095521
1010.000000	0.096438
1009.000000	0.097402
1008.000000	0.098261
1007.000000	0.099136
1006.000000	0.099826
1005.000000	0.100873
1004.000000	0.101447
1003.000000	0.102454
1002.000000	0.103292
1001.000000	0.104275
1000.000000	0.105201
999.000000	0.106202
998.000000	0.107210
997.000000	0.108204
996.000000	0.109142
995.000000	0.110146
994.000000	0.111152
993.000000	0.112112
992.000000	0.113197
991.000000	0.114152
990.000000	0.115569
989.000000	0.116652
988.000000	0.117906
987.000000	0.119151
986.000000	0.120268
985.000000	0.121659
984.000000	0.122904
983.000000	0.124234
982.000000	0.125448
981.000000	0.126670
980.000000	0.128198
979.000000	0.129470
978.000000	0.131011
977.000000	0.132272
976.000000	0.133716
975.000000	0.134979
974.000000	0.136518
973.000000	0.137968
972.000000	0.139455
971.000000	0.140991
970.000000	0.142661
969.000000	0.144211
968.000000	0.145830
967.000000	0.147698
966.000000	0.149434
965.000000	0.151111
964.000000	0.153036
963.000000	0.154818
962.000000	0.156990
961.000000	0.158793
960.000000	0.160676
959.000000	0.162860
958.000000	0.165065
957.000000	0.167207
956.000000	0.169697
955.000000	0.172208
954.000000	0.174368
953.000000	0.176831
952.000000	0.179190
951.000000	0.181312
950.000000	0.184060
949.000000	0.186433
948.000000	0.189144
947.000000	0.191593
946.000000	0.194152
945.000000	0.196789
944.000000	0.199335
943.000000	0.202323
942.000000	0.204968
941.000000	0.207969
940.000000	0.210867
939.000000	0.213966
938.000000	0.217047
937.000000	0.220295
936.000000	0.223557
935.000000	0.226812
934.000000	0.230328
933.000000	0.233805
932.000000	0.237379
931.000000	0.241234
930.000000	0.244894
929.000000	0.248704
928.000000	0.252731
927.000000	0.256926
926.000000	0.261246
925.000000	0.265646
924.000000	0.270178
923.000000	0.274597
922.000000	0.279256
921.000000	0.283840
920.000000	0.288499
919.000000	0.293172
918.000000	0.297880
917.000000	0.302717
916.000000	0.307569
915.000000	0.312500
914.000000	0.317592
913.000000	0.322784
912.000000	0.328332
911.000000	0.333857
910.000000	0.339417
909.000000	0.345264
908.000000	0.351045
907.000000	0.356986
906.000000	0.363272
905.000000	0.369641
904.000000	0.376345
903.000000	0.382881
902.000000	0.389676
901.000000	0.396405
900.000000	0.403346
899.000000	0.410177
898.000000	0.417616
897.000000	0.425415
896.000000	0.433386
895.000000	0.441423
894.000000	0.449431
893.000000	0.457299
892.000000	0.465293
891.000000	0.473443
890.000000	0.481287
889.000000	0.489316
888.000000	0.497386
887.000000	0.505489
886.000000	0.514021
885.000000	0.522528
884.000000	0.531279
883.000000	0.540068
882.000000	0.549116
881.000000	0.558193
880.000000	0.567431
879.000000	0.576977
878.000000	0.586517
877.000000	0.596216
876.000000	0.606202
875.000000	0.616122
874.000000	0.626143
873.000000	0.636512
872.000000	0.646549
871.000000	0.656798
870.000000	0.666870
869.000000	0.677302
868.000000	0.687656
867.000000	0.698260
866.000000	0.709538
865.000000	0.720097
864.000000	0.730856
863.000000	0.741431
862.000000	0.752064
861.000000	0.762656
860.000000	0.773214
859.000000	0.783889
858.000000	0.793979
857.000000	0.804407
856.000000	0.815155
855.000000	0.825701
854.000000	0.836088
853.000000	0.846331
852.000000	0.856762
851.000000	0.866936
850.000000	0.877726
849.000000	0.888227
848.000000	0.898652
847.000000	0.909032
846.000000	0.919277
845.000000	0.929822
844.000000	0.939692
843.000000	0.949317
842.000000	0.959627
841.000000	0.969792
840.000000	0.980203
839.000000	0.989800
838.000000	0.999581
837.000000	1.009214
836.000000	1.018508
835.000000	1.027786
834.000000	1.036778
833.000000	1.045756
832.000000	1.054139
831.000000	1.062645
830.000000	1.070405
829.000000	1.078424
828.000000	1.086417
827.000000	1.093856
826.000000	1.101458
825.000000	1.108441
824.000000	1.115552
823.000000	1.122298
822.000000	1.128943
821.000000	1.135343
820.000000	1.141478
819.000000	1.146763
818.000000	1.153515
817.000000	1.158519
816.000000	1.163674
815.000000	1.168375
814.000000	1.173295
813.000000	1.177640
812.000000	1.181343
811.000000	1.184857
810.000000	1.189043
809.000000	1.192315
808.000000	1.195054
807.000000	1.197730
806.000000	1.199603
805.000000	1.201300
804.000000	1.203029
803.000000	1.203468
802.000000	1.204565
801.000000	1.205052
800.000000	1.204824
799.000000	1.204383
798.000000	1.203060
797.000000	1.202139
796.000000	1.200204
795.000000	1.197082
794.000000	1.194756
793.000000	1.191733
792.000000	1.189046
791.000000	1.185470
790.000000	1.181797
789.000000	1.177984
788.000000	1.173644
787.000000	1.169002
786.000000	1.163964
785.000000	1.159005
784.000000	1.153616
783.000000	1.147666
782.000000	1.141206
781.000000	1.134048
780.000000	1.126734
779.000000	1.118973
778.000000	1.111344
777.000000	1.103151
776.000000	1.095210
775.000000	1.086388
774.000000	1.077559
773.000000	1.068279
772.000000	1.058661
771.000000	1.048634
770.000000	1.038322
769.000000	1.027654
768.000000	1.016813
767.000000	1.005361
766.000000	0.993641
765.000000	0.981301
764.000000	0.968633
763.000000	0.955851
762.000000	0.943377
761.000000	0.930582
760.000000	0.917644
759.000000	0.904538
758.000000	0.891216
757.000000	0.877798
756.000000	0.864404
755.000000	0.850750
754.000000	0.836916
753.000000	0.822754
752.000000	0.808451
751.000000	0.794005
750.000000	0.779456
749.000000	0.765175
748.000000	0.751007
747.000000	0.736906
746.000000	0.723346
745.000000	0.709593
744.000000	0.695934
743.000000	0.682117
742.000000	0.668751
741.000000	0.655213
740.000000	0.641841
739.000000	0.628812
738.000000	0.615848
737.000000	0.603184
736.000000	0.590746
735.000000	0.578353
734.000000	0.566003
733.000000	0.553956
732.000000	0.542167
731.000000	0.530371
730.000000	0.519173
729.000000	0.508243
728.000000	0.497379
727.000000	0.486689
726.000000	0.476184
725.000000	0.465965
724.000000	0.455694
723.000000	0.445796
722.000000	0.436079
721.000000	0.426536
720.000000	0.417590
719.000000	0.408743
718.000000	0.400333
717.000000	0.392393
716.000000	0.384484
715.000000	0.377051
714.000000	0.369681
713.000000	0.362554
712.000000	0.355636
711.000000	0.349010
710.000000	0.342645
709.000000	0.336435
708.000000	0.330469
707.000000	0.324574
706.000000	0.318995
705.000000	0.313771
704.000000	0.308541
703.000000	0.303490
702.000000	0.298654
701.000000	0.293901
700.000000	0.289371
699.000000	0.285118
698.000000	0.280941
697.000000	0.276857
696.000000	0.273032
695.000000	0.269132
694.000000	0.265370
693.000000	0.261902
692.000000	0.258515
691.000000	0.255330
690.000000	0.252239
689.000000	0.249226
688.000000	0.246420
687.000000	0.243884
686.000000	0.241245
685.000000	0.238669
684.000000	0.236063
683.000000	0.233879
682.000000	0.231717
681.000000	0.229418
680.000000	0.227557
679.000000	0.225646
678.000000	0.223826
677.000000	0.222151
676.000000	0.220645
675.000000	0.218947
674.000000	0.217524
673.000000	0.216184
672.000000	0.214955
671.000000	0.213676
670.000000	0.212427
669.000000	0.211205
668.000000	0.210291
667.000000	0.209076
666.000000	0.208145
665.000000	0.207011
664.000000	0.206244
663.000000	0.205323
662.000000	0.204523
661.000000	0.203873
660.000000	0.203007
659.000000	0.202316
658.000000	0.201737
657.000000	0.201229
656.000000	0.200686
655.000000	0.200178
654.000000	0.199700
653.000000	0.199194
652.000000	0.198818
651.000000	0.198460
650.000000	0.198043
649.000000	0.197818
648.000000	0.197471
647.000000	0.197248
646.000000	0.197020
645.000000	0.196905
644.000000	0.196681
643.000000	0.196553
642.000000	0.196407
641.000000	0.196273
640.000000	0.196275
639.000000	0.196245
638.000000	0.196237
637.000000	0.196208
636.000000	0.196332
635.000000	0.196387
634.000000	0.196544
633.000000	0.196672
632.000000	0.196794
631.000000	0.196896
630.000000	0.197223
629.000000	0.197426
628.000000	0.197647
627.000000	0.197914
626.000000	0.198292
625.000000	0.198682
624.000000	0.198898
623.000000	0.199467
622.000000	0.199856
621.000000	0.200387
620.000000	0.200789
619.000000	0.201456
618.000000	0.201971
617.000000	0.202578
616.000000	0.203256
615.000000	0.203935
614.000000	0.204625
613.000000	0.205358
612.000000	0.206118
611.000000	0.207023
610.000000	0.207841
609.000000	0.208769
608.000000	0.209731
607.000000	0.210898
606.000000	0.211883
605.000000	0.213091
604.000000	0.214263
603.000000	0.215484
602.000000	0.216807
601.000000	0.218180
600.000000	0.219730
599.000000	0.221228
598.000000	0.222904
597.000000	0.224490
596.000000	0.226246
595.000000	0.228053
594.000000	0.230096
593.000000	0.232196
592.000000	0.234334
591.000000	0.236470
590.000000	0.238924
589.000000	0.241372
588.000000	0.243941
587.000000	0.246717
586.000000	0.249525
585.000000	0.252521
584.000000	0.255646
583.000000	0.258745
582.000000	0.262045
581.000000	0.265584
580.000000	0.269270
579.000000	0.273123
578.000000	0.277098
577.000000	0.281191
576.000000	0.285628
575.000000	0.290256
574.000000	0.294879
573.000000	0.299569
572.000000	0.304619
571.000000	0.309853
570.000000	0.315296
569.000000	0.320927
568.000000	0.326756
567.000000	0.332424
566.000000	0.338473
565.000000	0.344470
564.000000	0.350469
563.000000	0.356679
562.000000	0.362953
561.000000	0.369453
560.000000	0.375826
559.000000	0.382335
558.000000	0.388930
557.000000	0.395521
556.000000	0.402083
555.000000	0.408384
554.000000	0.414900
553.000000	0.421058
552.000000	0.427096
551.000000	0.433123
550.000000	0.438822
549.000000	0.444620
548.000000	0.450084
547.000000	0.455482
546.000000	0.460691
545.000000	0.465819
544.000000	0.470532
543.000000	0.475103
542.000000	0.479432
541.000000	0.483607
540.000000	0.487399
539.000000	0.491134
538.000000	0.494496
537.000000	0.497602
536.000000	0.500636
535.000000	0.503361
534.000000	0.505920
533.000000	0.508258
532.000000	0.510257
531.000000	0.512261
530.000000	0.514012
529.000000	0.515619
528.000000	0.516889
527.000000	0.518110
526.000000	0.518987
525.000000	0.519649
524.000000	0.520154
523.000000	0.520349
522.000000	0.520506
521.000000	0.520341
520.000000	0.519970
519.000000	0.519288
518.000000	0.518463
517.000000	0.517273
516.000000	0.515769
515.000000	0.513930
514.000000	0.512015
513.000000	0.509861
512.000000	0.507190
511.000000	0.504372
510.000000	0.501090
509.000000	0.497902
508.000000	0.494221
507.000000	0.490257
506.000000	0.486197
505.000000	0.481794
504.000000	0.477164
503.000000	0.472461
502.000000	0.467642
501.000000	0.462530
500.000000	0.457642
499.000000	0.452539
498.000000	0.447511
497.000000	0.442589
496.000000	0.437737
495.000000	0.432964
494.000000	0.428352
493.000000	0.424040
492.000000	0.419819
491.000000	0.415823
490.000000	0.412078
489.000000	0.408509
488.000000	0.405016
487.000000	0.401779
486.000000	0.398833
485.000000	0.396054
484.000000	0.393616
483.000000	0.391071
482.000000	0.388856
481.000000	0.387016
480.000000	0.385189
479.000000	0.383573
478.000000	0.382106
477.000000	0.380874
476.000000	0.379680
475.000000	0.378475
474.000000	0.377650
473.000000	0.376816
472.000000	0.376062
471.000000	0.375466
470.000000	0.374992
469.000000	0.374475
468.000000	0.374026
467.000000	0.373688
466.000000	0.373318
465.000000	0.373268
464.000000	0.373073
463.000000	0.373085
462.000000	0.373012
461.000000	0.373208
460.000000	0.373230
459.000000	0.373423
458.000000	0.373594
457.000000	0.373762
456.000000	0.374132
455.000000	0.374274
454.000000	0.374833
453.000000	0.375087
452.000000	0.375618
451.000000	0.375879
450.000000	0.376352
449.000000	0.376791
448.000000	0.377301
447.000000	0.377890
446.000000	0.378385
445.000000	0.379003
444.000000	0.379402
443.000000	0.379949
442.000000	0.380602
441.000000	0.381226
440.000000	0.381671
439.000000	0.382464
438.000000	0.383008
437.000000	0.383627
436.000000	0.384293
435.000000	0.384908
434.000000	0.385692
433.000000	0.386389
432.000000	0.387072
431.000000	0.387564
430.000000	0.388376
429.000000	0.388981
428.000000	0.389715
427.000000	0.390473
426.000000	0.391365
425.000000	0.391996
424.000000	0.392762
423.000000	0.393459
422.000000	0.394282
421.000000	0.394945
420.000000	0.395773
419.000000	0.396562
418.000000	0.397405
417.000000	0.398294
416.000000	0.399194
415.000000	0.400028
414.000000	0.401008
413.000000	0.401741
412.000000	0.402657
411.000000	0.403606
410.000000	0.404534
409.000000	0.405488
408.000000	0.406431
407.000000	0.407339
406.000000	0.408317
405.000000	0.409290
404.000000	0.410276
403.000000	0.411172
402.000000	0.412060
401.000000	0.413049
400.000000	0.413970
399.000000	0.414902
398.000000	0.415961
397.000000	0.416931
396.000000	0.417996
395.000000	0.419045
394.000000	0.420041
393.000000	0.420918
392.000000	0.421864
391.000000	0.422594
390.000000	0.423624
389.000000	0.424551
388.000000	0.425455
387.000000	0.426559
386.000000	0.427596
385.000000	0.428444
384.000000	0.429065
383.000000	0.429768
382.000000	0.429921
381.000000	0.431594
380.000000	0.432262
379.000000	0.433067
378.000000	0.434601
377.000000	0.435422
376.000000	0.436099
375.000000	0.437184
374.000000	0.438046
373.000000	0.439104
372.000000	0.439702
371.000000	0.440667
370.000000	0.441366
369.000000	0.442177
368.000000	0.442689
367.000000	0.443630
366.000000	0.444099
365.000000	0.444943
364.000000	0.445570
363.000000	0.445899
362.000000	0.446525
361.000000	0.446930
360.000000	0.447675
359.000000	0.447851
358.000000	0.448805
357.000000	0.449073
356.000000	0.449504
355.000000	0.449873
354.000000	0.450496
353.000000	0.451143
352.000000	0.451356
351.000000	0.452190
350.000000	0.452595
