PE UV       SUBTECH     SPECTRUM    ASCII       PEDS        4.00        
   -1
GNRs_ctab_160ul_7W_5mins.Sample.asc
13/12/09
17:07:03.00
13/12/09
17:07:03.00
Administrator

350.000000
1
Lambda 25
1
PerkinElmer UV WinLab 6.0.3.0730 / Lambda25 1.27

480
2
1
0
0
Both on
1
1
1
6x Cell Changer
0
0
0
0
 
 
0
0
0
0
0
 
 
 
0
 
0
326
0
 
0
 
 
 
0
0
0
 
0
 
 
 
0
 
 
0
0
0
0
0
 
 
 
 
0
0


#HDR
-1
-1
#GR
nm
A
1.0
0.0
1100.000000
-1.000000
751
8
0.571275
0.044335
#DATA
1100.000000	0.044335
1099.000000	0.044718
1098.000000	0.045052
1097.000000	0.044991
1096.000000	0.044857
1095.000000	0.044530
1094.000000	0.045101
1093.000000	0.045908
1092.000000	0.045061
1091.000000	0.045701
1090.000000	0.046174
1089.000000	0.046015
1088.000000	0.046029
1087.000000	0.046633
1086.000000	0.046510
1085.000000	0.047039
1084.000000	0.047026
1083.000000	0.047229
1082.000000	0.047178
1081.000000	0.047808
1080.000000	0.047967
1079.000000	0.048119
1078.000000	0.048557
1077.000000	0.049080
1076.000000	0.049218
1075.000000	0.049498
1074.000000	0.049611
1073.000000	0.050065
1072.000000	0.050370
1071.000000	0.050771
1070.000000	0.050593
1069.000000	0.050926
1068.000000	0.051494
1067.000000	0.051515
1066.000000	0.052240
1065.000000	0.052252
1064.000000	0.052213
1063.000000	0.052820
1062.000000	0.053193
1061.000000	0.053377
1060.000000	0.053805
1059.000000	0.053621
1058.000000	0.054143
1057.000000	0.054401
1056.000000	0.054699
1055.000000	0.054692
1054.000000	0.055109
1053.000000	0.055643
1052.000000	0.055799
1051.000000	0.056180
1050.000000	0.056322
1049.000000	0.056715
1048.000000	0.057042
1047.000000	0.057514
1046.000000	0.057811
1045.000000	0.058212
1044.000000	0.058675
1043.000000	0.058948
1042.000000	0.059393
1041.000000	0.059796
1040.000000	0.060350
1039.000000	0.060561
1038.000000	0.061158
1037.000000	0.061365
1036.000000	0.062060
1035.000000	0.062557
1034.000000	0.062926
1033.000000	0.063258
1032.000000	0.063578
1031.000000	0.064156
1030.000000	0.064459
1029.000000	0.064956
1028.000000	0.065419
1027.000000	0.065879
1026.000000	0.066333
1025.000000	0.066860
1024.000000	0.067428
1023.000000	0.067805
1022.000000	0.068222
1021.000000	0.068792
1020.000000	0.069265
1019.000000	0.069864
1018.000000	0.070271
1017.000000	0.071010
1016.000000	0.071336
1015.000000	0.072107
1014.000000	0.072615
1013.000000	0.073219
1012.000000	0.073750
1011.000000	0.074415
1010.000000	0.074910
1009.000000	0.075677
1008.000000	0.076222
1007.000000	0.076986
1006.000000	0.077321
1005.000000	0.078082
1004.000000	0.078457
1003.000000	0.079138
1002.000000	0.079663
1001.000000	0.080366
1000.000000	0.081172
999.000000	0.081835
998.000000	0.082439
997.000000	0.083193
996.000000	0.083796
995.000000	0.084326
994.000000	0.085070
993.000000	0.085762
992.000000	0.086497
991.000000	0.087176
990.000000	0.088075
989.000000	0.088909
988.000000	0.089807
987.000000	0.090582
986.000000	0.091331
985.000000	0.092248
984.000000	0.093193
983.000000	0.094103
982.000000	0.094887
981.000000	0.095643
980.000000	0.096872
979.000000	0.097625
978.000000	0.098790
977.000000	0.099595
976.000000	0.100669
975.000000	0.101580
974.000000	0.102694
973.000000	0.103737
972.000000	0.104790
971.000000	0.105841
970.000000	0.106814
969.000000	0.108150
968.000000	0.109351
967.000000	0.110562
966.000000	0.111886
965.000000	0.113110
964.000000	0.114625
963.000000	0.115749
962.000000	0.117428
961.000000	0.118658
960.000000	0.119917
959.000000	0.121641
958.000000	0.123187
957.000000	0.124827
956.000000	0.126733
955.000000	0.128696
954.000000	0.130367
953.000000	0.132108
952.000000	0.133962
951.000000	0.135559
950.000000	0.137411
949.000000	0.139207
948.000000	0.141312
947.000000	0.143111
946.000000	0.145196
945.000000	0.146979
944.000000	0.148892
943.000000	0.151048
942.000000	0.152937
941.000000	0.155170
940.000000	0.157350
939.000000	0.159532
938.000000	0.161945
937.000000	0.164242
936.000000	0.166703
935.000000	0.169029
934.000000	0.171668
933.000000	0.174050
932.000000	0.176649
931.000000	0.179361
930.000000	0.182121
929.000000	0.184834
928.000000	0.187701
927.000000	0.190788
926.000000	0.193716
925.000000	0.197036
924.000000	0.200239
923.000000	0.203382
922.000000	0.206594
921.000000	0.209849
920.000000	0.213156
919.000000	0.216304
918.000000	0.219658
917.000000	0.222957
916.000000	0.226342
915.000000	0.229657
914.000000	0.233176
913.000000	0.236692
912.000000	0.240293
911.000000	0.244014
910.000000	0.247749
909.000000	0.251538
908.000000	0.255409
907.000000	0.259217
906.000000	0.263304
905.000000	0.267317
904.000000	0.271559
903.000000	0.275511
902.000000	0.279830
901.000000	0.283902
900.000000	0.287990
899.000000	0.292096
898.000000	0.296500
897.000000	0.301004
896.000000	0.305804
895.000000	0.310204
894.000000	0.314729
893.000000	0.318921
892.000000	0.323265
891.000000	0.327492
890.000000	0.331645
889.000000	0.335587
888.000000	0.339657
887.000000	0.343675
886.000000	0.347691
885.000000	0.351653
884.000000	0.355629
883.000000	0.359380
882.000000	0.363311
881.000000	0.367009
880.000000	0.370887
879.000000	0.374595
878.000000	0.378256
877.000000	0.381829
876.000000	0.385424
875.000000	0.388810
874.000000	0.392095
873.000000	0.395351
872.000000	0.398511
871.000000	0.401536
870.000000	0.404549
869.000000	0.407254
868.000000	0.409944
867.000000	0.412783
866.000000	0.415349
865.000000	0.417696
864.000000	0.420041
863.000000	0.422220
862.000000	0.424407
861.000000	0.426374
860.000000	0.428219
859.000000	0.430054
858.000000	0.431687
857.000000	0.433177
856.000000	0.434974
855.000000	0.436323
854.000000	0.437865
853.000000	0.439197
852.000000	0.440573
851.000000	0.441816
850.000000	0.443042
849.000000	0.444312
848.000000	0.445544
847.000000	0.446789
846.000000	0.447800
845.000000	0.448994
844.000000	0.449943
843.000000	0.451093
842.000000	0.452103
841.000000	0.453211
840.000000	0.454376
839.000000	0.455377
838.000000	0.456454
837.000000	0.457507
836.000000	0.458629
835.000000	0.459618
834.000000	0.460755
833.000000	0.461963
832.000000	0.462965
831.000000	0.464068
830.000000	0.465164
829.000000	0.466411
828.000000	0.467578
827.000000	0.468503
826.000000	0.469870
825.000000	0.470982
824.000000	0.472281
823.000000	0.473335
822.000000	0.474569
821.000000	0.475858
820.000000	0.477008
819.000000	0.478314
818.000000	0.479840
817.000000	0.481080
816.000000	0.482284
815.000000	0.483676
814.000000	0.485003
813.000000	0.486462
812.000000	0.487789
811.000000	0.489202
810.000000	0.490576
809.000000	0.492134
808.000000	0.493695
807.000000	0.495058
806.000000	0.496417
805.000000	0.497863
804.000000	0.499135
803.000000	0.500489
802.000000	0.502014
801.000000	0.503344
800.000000	0.504934
799.000000	0.506175
798.000000	0.507763
797.000000	0.509235
796.000000	0.510661
795.000000	0.512409
794.000000	0.513901
793.000000	0.515406
792.000000	0.517156
791.000000	0.518675
790.000000	0.520247
789.000000	0.521697
788.000000	0.523382
787.000000	0.524956
786.000000	0.526715
785.000000	0.528345
784.000000	0.530020
783.000000	0.531666
782.000000	0.533314
781.000000	0.535077
780.000000	0.536928
779.000000	0.538654
778.000000	0.540442
777.000000	0.542238
776.000000	0.543940
775.000000	0.545629
774.000000	0.547303
773.000000	0.548842
772.000000	0.550424
771.000000	0.551865
770.000000	0.553296
769.000000	0.554635
768.000000	0.555769
767.000000	0.556859
766.000000	0.557826
765.000000	0.558534
764.000000	0.559070
763.000000	0.559198
762.000000	0.559177
761.000000	0.558729
760.000000	0.557904
759.000000	0.556781
758.000000	0.555387
757.000000	0.553466
756.000000	0.551273
755.000000	0.548564
754.000000	0.545363
753.000000	0.541917
752.000000	0.537863
751.000000	0.533435
750.000000	0.528490
749.000000	0.523522
748.000000	0.517994
747.000000	0.512363
746.000000	0.506501
745.000000	0.500408
744.000000	0.493974
743.000000	0.487281
742.000000	0.480702
741.000000	0.473833
740.000000	0.466837
739.000000	0.459860
738.000000	0.452757
737.000000	0.445756
736.000000	0.438724
735.000000	0.431821
734.000000	0.424707
733.000000	0.417673
732.000000	0.410604
731.000000	0.403642
730.000000	0.397139
729.000000	0.390749
728.000000	0.384198
727.000000	0.377903
726.000000	0.371733
725.000000	0.365687
724.000000	0.359652
723.000000	0.353926
722.000000	0.348178
721.000000	0.342650
720.000000	0.337506
719.000000	0.332443
718.000000	0.327555
717.000000	0.323218
716.000000	0.318794
715.000000	0.314595
714.000000	0.310535
713.000000	0.306719
712.000000	0.303000
711.000000	0.299577
710.000000	0.296191
709.000000	0.293142
708.000000	0.290189
707.000000	0.287211
706.000000	0.284483
705.000000	0.282064
704.000000	0.279652
703.000000	0.277386
702.000000	0.275279
701.000000	0.273288
700.000000	0.271408
699.000000	0.269715
698.000000	0.268072
697.000000	0.266658
696.000000	0.265306
695.000000	0.263972
694.000000	0.262796
693.000000	0.261827
692.000000	0.260861
691.000000	0.260037
690.000000	0.259419
689.000000	0.258739
688.000000	0.258271
687.000000	0.257880
686.000000	0.257471
685.000000	0.257123
684.000000	0.256805
683.000000	0.256821
682.000000	0.256751
681.000000	0.256718
680.000000	0.256811
679.000000	0.256961
678.000000	0.257121
677.000000	0.257529
676.000000	0.257739
675.000000	0.258105
674.000000	0.258484
673.000000	0.259097
672.000000	0.259751
671.000000	0.260240
670.000000	0.260846
669.000000	0.261444
668.000000	0.262217
667.000000	0.262809
666.000000	0.263603
665.000000	0.264328
664.000000	0.265216
663.000000	0.265835
662.000000	0.266771
661.000000	0.267700
660.000000	0.268474
659.000000	0.269353
658.000000	0.270240
657.000000	0.271261
656.000000	0.272193
655.000000	0.273194
654.000000	0.274226
653.000000	0.275192
652.000000	0.276254
651.000000	0.277208
650.000000	0.278224
649.000000	0.279369
648.000000	0.280383
647.000000	0.281445
646.000000	0.282582
645.000000	0.283745
644.000000	0.284785
643.000000	0.285893
642.000000	0.286984
641.000000	0.288036
640.000000	0.289302
639.000000	0.290395
638.000000	0.291585
637.000000	0.292688
636.000000	0.293931
635.000000	0.295107
634.000000	0.296323
633.000000	0.297590
632.000000	0.298705
631.000000	0.299984
630.000000	0.301186
629.000000	0.302427
628.000000	0.303751
627.000000	0.304886
626.000000	0.306198
625.000000	0.307429
624.000000	0.308735
623.000000	0.310097
622.000000	0.311306
621.000000	0.312783
620.000000	0.314002
619.000000	0.315492
618.000000	0.316772
617.000000	0.318015
616.000000	0.319525
615.000000	0.320946
614.000000	0.322353
613.000000	0.323735
612.000000	0.325206
611.000000	0.326748
610.000000	0.328234
609.000000	0.329783
608.000000	0.331291
607.000000	0.332981
606.000000	0.334479
605.000000	0.336246
604.000000	0.337894
603.000000	0.339476
602.000000	0.341194
601.000000	0.343007
600.000000	0.344963
599.000000	0.346758
598.000000	0.348761
597.000000	0.350538
596.000000	0.352575
595.000000	0.354518
594.000000	0.356652
593.000000	0.358940
592.000000	0.361094
591.000000	0.363327
590.000000	0.365751
589.000000	0.368186
588.000000	0.370624
587.000000	0.373211
586.000000	0.375784
585.000000	0.378511
584.000000	0.381341
583.000000	0.384095
582.000000	0.386961
581.000000	0.390094
580.000000	0.393312
579.000000	0.396463
578.000000	0.399886
577.000000	0.403288
576.000000	0.406801
575.000000	0.410610
574.000000	0.414292
573.000000	0.418084
572.000000	0.422149
571.000000	0.426276
570.000000	0.430557
569.000000	0.434948
568.000000	0.439307
567.000000	0.443707
566.000000	0.448391
565.000000	0.452828
564.000000	0.457373
563.000000	0.462011
562.000000	0.466747
561.000000	0.471560
560.000000	0.476390
559.000000	0.481219
558.000000	0.486011
557.000000	0.490897
556.000000	0.495669
555.000000	0.500195
554.000000	0.504709
553.000000	0.509122
552.000000	0.513409
551.000000	0.517784
550.000000	0.521804
549.000000	0.525697
548.000000	0.529449
547.000000	0.533163
546.000000	0.536759
545.000000	0.540026
544.000000	0.543307
543.000000	0.546344
542.000000	0.549167
541.000000	0.551871
540.000000	0.554343
539.000000	0.556638
538.000000	0.558862
537.000000	0.560705
536.000000	0.562665
535.000000	0.564188
534.000000	0.565734
533.000000	0.567036
532.000000	0.568204
531.000000	0.569010
530.000000	0.569950
529.000000	0.570641
528.000000	0.571036
527.000000	0.571255
526.000000	0.571275
525.000000	0.571151
524.000000	0.570651
523.000000	0.569963
522.000000	0.569066
521.000000	0.567995
520.000000	0.566749
519.000000	0.564938
518.000000	0.562952
517.000000	0.560797
516.000000	0.558112
515.000000	0.555057
514.000000	0.551835
513.000000	0.548216
512.000000	0.544363
511.000000	0.540163
510.000000	0.535583
509.000000	0.530884
508.000000	0.525929
507.000000	0.520664
506.000000	0.515228
505.000000	0.509613
504.000000	0.503747
503.000000	0.497796
502.000000	0.491619
501.000000	0.485538
500.000000	0.479599
499.000000	0.473397
498.000000	0.467519
497.000000	0.461671
496.000000	0.455906
495.000000	0.450379
494.000000	0.445019
493.000000	0.440040
492.000000	0.435303
491.000000	0.430661
490.000000	0.426379
489.000000	0.422187
488.000000	0.418236
487.000000	0.414571
486.000000	0.410950
485.000000	0.407728
484.000000	0.404873
483.000000	0.401930
482.000000	0.399421
481.000000	0.397298
480.000000	0.395022
479.000000	0.393110
478.000000	0.391270
477.000000	0.389752
476.000000	0.388186
475.000000	0.386766
474.000000	0.385603
473.000000	0.384473
472.000000	0.383565
471.000000	0.382704
470.000000	0.381916
469.000000	0.381265
468.000000	0.380607
467.000000	0.380177
466.000000	0.379409
465.000000	0.379103
464.000000	0.378780
463.000000	0.378564
462.000000	0.378377
461.000000	0.378294
460.000000	0.378074
459.000000	0.378091
458.000000	0.378034
457.000000	0.378218
456.000000	0.378386
455.000000	0.378209
454.000000	0.378657
453.000000	0.378745
452.000000	0.379165
451.000000	0.379390
450.000000	0.379712
449.000000	0.380026
448.000000	0.380333
447.000000	0.380759
446.000000	0.381140
445.000000	0.381633
444.000000	0.382101
443.000000	0.382508
442.000000	0.383023
441.000000	0.383495
440.000000	0.383879
439.000000	0.384441
438.000000	0.385029
437.000000	0.385653
436.000000	0.386139
435.000000	0.386572
434.000000	0.387414
433.000000	0.387849
432.000000	0.388482
431.000000	0.389058
430.000000	0.389699
429.000000	0.390334
428.000000	0.390910
427.000000	0.391738
426.000000	0.392363
425.000000	0.393063
424.000000	0.393778
423.000000	0.394355
422.000000	0.395030
421.000000	0.395845
420.000000	0.396565
419.000000	0.397383
418.000000	0.398118
417.000000	0.399065
416.000000	0.399787
415.000000	0.400733
414.000000	0.401534
413.000000	0.402297
412.000000	0.403103
411.000000	0.404123
410.000000	0.404912
409.000000	0.405782
408.000000	0.406783
407.000000	0.407692
406.000000	0.408586
405.000000	0.409659
404.000000	0.410475
403.000000	0.411386
402.000000	0.412274
401.000000	0.413236
400.000000	0.414258
399.000000	0.415047
398.000000	0.416179
397.000000	0.417105
396.000000	0.418200
395.000000	0.419177
394.000000	0.420246
393.000000	0.421124
392.000000	0.421878
391.000000	0.422771
390.000000	0.423773
389.000000	0.424641
388.000000	0.425634
387.000000	0.426679
386.000000	0.427762
385.000000	0.428520
384.000000	0.429232
383.000000	0.430194
382.000000	0.430730
381.000000	0.432163
380.000000	0.432540
379.000000	0.433500
378.000000	0.434741
377.000000	0.435265
376.000000	0.436210
375.000000	0.437168
374.000000	0.437983
373.000000	0.438881
372.000000	0.439606
371.000000	0.440441
370.000000	0.441074
369.000000	0.442128
368.000000	0.442624
367.000000	0.443170
366.000000	0.443983
365.000000	0.444744
364.000000	0.445254
363.000000	0.445682
362.000000	0.445988
361.000000	0.446425
360.000000	0.446982
359.000000	0.447341
358.000000	0.448002
357.000000	0.448251
356.000000	0.448799
355.000000	0.448941
354.000000	0.449508
353.000000	0.450098
352.000000	0.450341
351.000000	0.450784
350.000000	0.451376
