PE UV       SUBTECH     SPECTRUM    ASCII       PEDS        4.00        
   -1
GNRs_ctab_150ul_0W_5mins.Sample.asc
13/12/09
16:41:42.00
13/12/09
16:41:42.00
Administrator

350.000000
1
Lambda 25
1
PerkinElmer UV WinLab 6.0.3.0730 / Lambda25 1.27

480
2
1
0
0
Both on
1
1
1
6x Cell Changer
0
0
0
0
 
 
0
0
0
0
0
 
 
 
0
 
0
326
0
 
0
 
 
 
0
0
0
 
0
 
 
 
0
 
 
0
0
0
0
0
 
 
 
 
0
0


#HDR
-1
-1
#GR
nm
A
1.0
0.0
1100.000000
-1.000000
751
8
1.366128
0.038407
#DATA
1100.000000	0.038513
1099.000000	0.038407
1098.000000	0.038971
1097.000000	0.039026
1096.000000	0.038522
1095.000000	0.038745
1094.000000	0.039125
1093.000000	0.039458
1092.000000	0.039010
1091.000000	0.039337
1090.000000	0.039499
1089.000000	0.040052
1088.000000	0.039957
1087.000000	0.040314
1086.000000	0.040212
1085.000000	0.040532
1084.000000	0.040501
1083.000000	0.041281
1082.000000	0.040981
1081.000000	0.041173
1080.000000	0.041850
1079.000000	0.041945
1078.000000	0.042155
1077.000000	0.042629
1076.000000	0.042574
1075.000000	0.043188
1074.000000	0.043254
1073.000000	0.043755
1072.000000	0.044021
1071.000000	0.044231
1070.000000	0.044864
1069.000000	0.045043
1068.000000	0.045256
1067.000000	0.045442
1066.000000	0.045994
1065.000000	0.046340
1064.000000	0.046307
1063.000000	0.046938
1062.000000	0.047357
1061.000000	0.047503
1060.000000	0.047968
1059.000000	0.048017
1058.000000	0.048373
1057.000000	0.048860
1056.000000	0.048854
1055.000000	0.049348
1054.000000	0.049902
1053.000000	0.050253
1052.000000	0.050879
1051.000000	0.051109
1050.000000	0.051519
1049.000000	0.051858
1048.000000	0.052445
1047.000000	0.052964
1046.000000	0.053423
1045.000000	0.053799
1044.000000	0.054385
1043.000000	0.054874
1042.000000	0.055557
1041.000000	0.055897
1040.000000	0.056660
1039.000000	0.057055
1038.000000	0.057791
1037.000000	0.058253
1036.000000	0.059051
1035.000000	0.059594
1034.000000	0.060198
1033.000000	0.060746
1032.000000	0.061191
1031.000000	0.062035
1030.000000	0.062660
1029.000000	0.063139
1028.000000	0.063639
1027.000000	0.064390
1026.000000	0.065272
1025.000000	0.065896
1024.000000	0.066806
1023.000000	0.067406
1022.000000	0.068328
1021.000000	0.068973
1020.000000	0.069646
1019.000000	0.070633
1018.000000	0.071306
1017.000000	0.072383
1016.000000	0.073052
1015.000000	0.074102
1014.000000	0.075041
1013.000000	0.076029
1012.000000	0.076942
1011.000000	0.077850
1010.000000	0.078896
1009.000000	0.079880
1008.000000	0.080834
1007.000000	0.081866
1006.000000	0.082608
1005.000000	0.083903
1004.000000	0.084725
1003.000000	0.085848
1002.000000	0.086784
1001.000000	0.088075
1000.000000	0.089173
999.000000	0.090310
998.000000	0.091395
997.000000	0.092667
996.000000	0.093900
995.000000	0.095105
994.000000	0.096496
993.000000	0.097709
992.000000	0.099102
991.000000	0.100331
990.000000	0.101888
989.000000	0.103317
988.000000	0.104868
987.000000	0.106436
986.000000	0.107779
985.000000	0.109582
984.000000	0.111309
983.000000	0.112903
982.000000	0.114719
981.000000	0.116360
980.000000	0.118173
979.000000	0.119769
978.000000	0.121704
977.000000	0.123505
976.000000	0.125414
975.000000	0.127328
974.000000	0.129253
973.000000	0.131366
972.000000	0.133168
971.000000	0.135123
970.000000	0.137340
969.000000	0.139604
968.000000	0.141859
967.000000	0.144343
966.000000	0.146722
965.000000	0.149125
964.000000	0.152013
963.000000	0.154341
962.000000	0.157270
961.000000	0.159829
960.000000	0.162618
959.000000	0.165540
958.000000	0.168543
957.000000	0.171697
956.000000	0.175054
955.000000	0.178427
954.000000	0.181759
953.000000	0.185155
952.000000	0.188700
951.000000	0.192047
950.000000	0.195486
949.000000	0.199125
948.000000	0.202698
947.000000	0.206388
946.000000	0.209817
945.000000	0.213482
944.000000	0.217241
943.000000	0.221341
942.000000	0.225292
941.000000	0.229368
940.000000	0.233467
939.000000	0.237756
938.000000	0.242424
937.000000	0.246917
936.000000	0.251610
935.000000	0.256326
934.000000	0.261135
933.000000	0.266140
932.000000	0.271165
931.000000	0.276459
930.000000	0.281736
929.000000	0.287072
928.000000	0.292692
927.000000	0.298530
926.000000	0.304573
925.000000	0.310690
924.000000	0.316868
923.000000	0.323025
922.000000	0.329290
921.000000	0.335486
920.000000	0.341838
919.000000	0.348267
918.000000	0.354709
917.000000	0.361130
916.000000	0.367743
915.000000	0.374278
914.000000	0.381032
913.000000	0.387817
912.000000	0.394960
911.000000	0.402348
910.000000	0.409774
909.000000	0.417399
908.000000	0.425056
907.000000	0.432837
906.000000	0.440861
905.000000	0.448813
904.000000	0.457211
903.000000	0.465431
902.000000	0.474193
901.000000	0.482576
900.000000	0.491209
899.000000	0.499949
898.000000	0.509344
897.000000	0.518643
896.000000	0.528716
895.000000	0.538238
894.000000	0.547815
893.000000	0.557280
892.000000	0.566985
891.000000	0.576532
890.000000	0.586035
889.000000	0.595560
888.000000	0.604951
887.000000	0.614467
886.000000	0.624025
885.000000	0.633709
884.000000	0.643768
883.000000	0.653665
882.000000	0.663964
881.000000	0.674334
880.000000	0.684871
879.000000	0.695535
878.000000	0.705849
877.000000	0.716699
876.000000	0.727434
875.000000	0.738372
874.000000	0.749386
873.000000	0.760327
872.000000	0.771341
871.000000	0.782453
870.000000	0.793433
869.000000	0.804428
868.000000	0.815673
867.000000	0.826915
866.000000	0.838503
865.000000	0.849715
864.000000	0.861093
863.000000	0.872171
862.000000	0.883658
861.000000	0.894726
860.000000	0.905818
859.000000	0.916958
858.000000	0.927683
857.000000	0.938613
856.000000	0.949878
855.000000	0.960945
854.000000	0.971716
853.000000	0.983091
852.000000	0.994323
851.000000	1.005401
850.000000	1.016498
849.000000	1.027814
848.000000	1.038933
847.000000	1.050030
846.000000	1.061260
845.000000	1.072232
844.000000	1.082893
843.000000	1.093650
842.000000	1.104445
841.000000	1.115631
840.000000	1.126665
839.000000	1.137345
838.000000	1.147868
837.000000	1.158584
836.000000	1.168702
835.000000	1.178559
834.000000	1.188973
833.000000	1.198610
832.000000	1.208013
831.000000	1.217343
830.000000	1.226358
829.000000	1.235228
828.000000	1.243904
827.000000	1.251667
826.000000	1.259811
825.000000	1.268290
824.000000	1.276297
823.000000	1.283882
822.000000	1.290828
821.000000	1.297838
820.000000	1.304478
819.000000	1.310879
818.000000	1.317007
817.000000	1.323209
816.000000	1.328474
815.000000	1.333900
814.000000	1.338450
813.000000	1.343152
812.000000	1.347420
811.000000	1.350631
810.000000	1.354269
809.000000	1.357456
808.000000	1.360310
807.000000	1.362044
806.000000	1.363974
805.000000	1.365621
804.000000	1.365764
803.000000	1.365342
802.000000	1.366128
801.000000	1.365706
800.000000	1.364675
799.000000	1.362939
798.000000	1.360935
797.000000	1.358829
796.000000	1.355308
795.000000	1.350133
794.000000	1.346797
793.000000	1.341796
792.000000	1.337474
791.000000	1.332593
790.000000	1.327258
789.000000	1.322025
788.000000	1.316311
787.000000	1.309571
786.000000	1.303354
785.000000	1.296352
784.000000	1.288886
783.000000	1.281673
782.000000	1.273668
781.000000	1.264864
780.000000	1.255911
779.000000	1.246478
778.000000	1.237477
777.000000	1.227622
776.000000	1.218061
775.000000	1.207711
774.000000	1.197359
773.000000	1.186493
772.000000	1.175728
771.000000	1.164357
770.000000	1.153101
769.000000	1.141425
768.000000	1.129327
767.000000	1.116725
766.000000	1.103629
765.000000	1.090425
764.000000	1.076605
763.000000	1.062929
762.000000	1.049803
761.000000	1.036513
760.000000	1.022969
759.000000	1.009281
758.000000	0.995310
757.000000	0.981023
756.000000	0.966907
755.000000	0.952360
754.000000	0.938203
753.000000	0.923464
752.000000	0.908650
751.000000	0.893593
750.000000	0.878440
749.000000	0.863457
748.000000	0.848465
747.000000	0.833265
746.000000	0.818427
745.000000	0.803615
744.000000	0.788820
743.000000	0.774011
742.000000	0.759556
741.000000	0.744640
740.000000	0.729963
739.000000	0.715091
738.000000	0.700315
737.000000	0.685689
736.000000	0.671368
735.000000	0.657337
734.000000	0.642980
733.000000	0.628814
732.000000	0.614792
731.000000	0.600616
730.000000	0.587396
729.000000	0.574316
728.000000	0.561205
727.000000	0.548382
726.000000	0.535751
725.000000	0.523326
724.000000	0.511145
723.000000	0.499210
722.000000	0.487459
721.000000	0.476038
720.000000	0.465167
719.000000	0.454275
718.000000	0.444000
717.000000	0.434180
716.000000	0.424631
715.000000	0.415565
714.000000	0.406813
713.000000	0.398434
712.000000	0.390234
711.000000	0.382354
710.000000	0.374785
709.000000	0.367529
708.000000	0.360349
707.000000	0.353268
706.000000	0.346870
705.000000	0.340800
704.000000	0.334942
703.000000	0.329304
702.000000	0.323821
701.000000	0.318617
700.000000	0.313493
699.000000	0.308772
698.000000	0.304245
697.000000	0.299860
696.000000	0.295779
695.000000	0.291818
694.000000	0.287987
693.000000	0.284339
692.000000	0.280943
691.000000	0.277787
690.000000	0.274709
689.000000	0.271830
688.000000	0.269248
687.000000	0.266723
686.000000	0.264436
685.000000	0.262212
684.000000	0.260056
683.000000	0.258226
682.000000	0.256576
681.000000	0.254755
680.000000	0.253268
679.000000	0.251951
678.000000	0.250519
677.000000	0.249389
676.000000	0.248312
675.000000	0.247262
674.000000	0.246498
673.000000	0.245800
672.000000	0.245206
671.000000	0.244631
670.000000	0.244075
669.000000	0.243618
668.000000	0.243334
667.000000	0.242951
666.000000	0.242653
665.000000	0.242436
664.000000	0.242362
663.000000	0.242283
662.000000	0.242409
661.000000	0.242512
660.000000	0.242393
659.000000	0.242623
658.000000	0.242854
657.000000	0.243159
656.000000	0.243499
655.000000	0.243887
654.000000	0.244292
653.000000	0.244632
652.000000	0.245133
651.000000	0.245643
650.000000	0.246234
649.000000	0.246724
648.000000	0.247409
647.000000	0.248090
646.000000	0.248769
645.000000	0.249494
644.000000	0.250257
643.000000	0.251006
642.000000	0.251802
641.000000	0.252613
640.000000	0.253637
639.000000	0.254529
638.000000	0.255447
637.000000	0.256385
636.000000	0.257447
635.000000	0.258517
634.000000	0.259645
633.000000	0.260831
632.000000	0.261880
631.000000	0.263064
630.000000	0.264275
629.000000	0.265553
628.000000	0.266754
627.000000	0.267976
626.000000	0.269416
625.000000	0.270743
624.000000	0.272221
623.000000	0.273583
622.000000	0.275114
621.000000	0.276637
620.000000	0.278226
619.000000	0.279947
618.000000	0.281444
617.000000	0.283075
616.000000	0.284721
615.000000	0.286522
614.000000	0.288299
613.000000	0.290123
612.000000	0.292009
611.000000	0.293934
610.000000	0.295920
609.000000	0.297879
608.000000	0.299937
607.000000	0.302063
606.000000	0.304289
605.000000	0.306654
604.000000	0.308889
603.000000	0.311248
602.000000	0.313634
601.000000	0.316230
600.000000	0.318873
599.000000	0.321487
598.000000	0.324312
597.000000	0.326991
596.000000	0.329906
595.000000	0.332888
594.000000	0.336052
593.000000	0.339356
592.000000	0.342644
591.000000	0.346081
590.000000	0.349568
589.000000	0.353212
588.000000	0.356911
587.000000	0.360729
586.000000	0.364844
585.000000	0.369100
584.000000	0.373448
583.000000	0.377787
582.000000	0.382395
581.000000	0.387135
580.000000	0.392124
579.000000	0.397057
578.000000	0.402395
577.000000	0.407591
576.000000	0.413284
575.000000	0.419173
574.000000	0.425223
573.000000	0.431099
572.000000	0.437422
571.000000	0.443656
570.000000	0.450298
569.000000	0.456944
568.000000	0.463769
567.000000	0.470562
566.000000	0.477533
565.000000	0.484508
564.000000	0.491523
563.000000	0.498414
562.000000	0.505334
561.000000	0.512351
560.000000	0.519152
559.000000	0.526098
558.000000	0.533076
557.000000	0.539937
556.000000	0.546728
555.000000	0.553032
554.000000	0.559564
553.000000	0.565553
552.000000	0.571413
551.000000	0.577046
550.000000	0.582667
549.000000	0.587851
548.000000	0.593073
547.000000	0.598023
546.000000	0.602945
545.000000	0.607607
544.000000	0.612034
543.000000	0.616162
542.000000	0.620130
541.000000	0.623903
540.000000	0.627454
539.000000	0.630955
538.000000	0.634181
537.000000	0.637321
536.000000	0.640225
535.000000	0.643050
534.000000	0.645624
533.000000	0.648078
532.000000	0.650295
531.000000	0.652357
530.000000	0.654421
529.000000	0.656282
528.000000	0.657757
527.000000	0.659262
526.000000	0.660404
525.000000	0.661348
524.000000	0.662074
523.000000	0.662424
522.000000	0.662713
521.000000	0.662602
520.000000	0.662207
519.000000	0.661589
518.000000	0.660372
517.000000	0.659066
516.000000	0.657140
515.000000	0.654871
514.000000	0.652252
513.000000	0.649233
512.000000	0.645865
511.000000	0.642016
510.000000	0.637629
509.000000	0.633056
508.000000	0.628045
507.000000	0.622584
506.000000	0.617027
505.000000	0.611120
504.000000	0.604922
503.000000	0.598479
502.000000	0.591858
501.000000	0.585224
500.000000	0.578445
499.000000	0.571474
498.000000	0.564764
497.000000	0.558043
496.000000	0.551592
495.000000	0.545239
494.000000	0.539259
493.000000	0.533501
492.000000	0.528014
491.000000	0.522863
490.000000	0.517776
489.000000	0.513007
488.000000	0.508379
487.000000	0.504211
486.000000	0.500257
485.000000	0.496594
484.000000	0.493293
483.000000	0.490172
482.000000	0.487318
481.000000	0.484719
480.000000	0.482422
479.000000	0.480167
478.000000	0.478302
477.000000	0.476662
476.000000	0.474996
475.000000	0.473524
474.000000	0.472369
473.000000	0.471152
472.000000	0.470276
471.000000	0.469467
470.000000	0.468743
469.000000	0.467988
468.000000	0.467374
467.000000	0.466940
466.000000	0.466548
465.000000	0.466323
464.000000	0.466056
463.000000	0.465893
462.000000	0.465952
461.000000	0.465927
460.000000	0.466023
459.000000	0.466134
458.000000	0.466308
457.000000	0.466598
456.000000	0.466766
455.000000	0.466945
454.000000	0.467507
453.000000	0.467953
452.000000	0.468445
451.000000	0.468871
450.000000	0.469480
449.000000	0.469987
448.000000	0.470447
447.000000	0.471159
446.000000	0.471705
445.000000	0.472414
444.000000	0.473155
443.000000	0.473684
442.000000	0.474546
441.000000	0.475157
440.000000	0.475862
439.000000	0.476791
438.000000	0.477544
437.000000	0.478322
436.000000	0.479081
435.000000	0.479798
434.000000	0.480551
433.000000	0.481477
432.000000	0.482142
431.000000	0.483062
430.000000	0.483947
429.000000	0.484702
428.000000	0.485514
427.000000	0.486366
426.000000	0.487300
425.000000	0.488343
424.000000	0.489134
423.000000	0.490159
422.000000	0.491111
421.000000	0.491958
420.000000	0.492959
419.000000	0.494047
418.000000	0.494946
417.000000	0.496116
416.000000	0.497183
415.000000	0.498221
414.000000	0.499298
413.000000	0.500375
412.000000	0.501526
411.000000	0.502708
410.000000	0.503740
409.000000	0.505038
408.000000	0.506158
407.000000	0.507308
406.000000	0.508419
405.000000	0.509676
404.000000	0.510858
403.000000	0.511969
402.000000	0.513074
401.000000	0.514328
400.000000	0.515552
399.000000	0.516677
398.000000	0.517920
397.000000	0.519229
396.000000	0.520467
395.000000	0.521678
394.000000	0.523096
393.000000	0.524355
392.000000	0.525264
391.000000	0.526457
390.000000	0.527621
389.000000	0.528762
388.000000	0.530039
387.000000	0.531219
386.000000	0.532530
385.000000	0.533694
384.000000	0.534561
383.000000	0.535937
382.000000	0.537954
381.000000	0.539078
380.000000	0.539861
379.000000	0.540687
378.000000	0.541590
377.000000	0.542727
376.000000	0.543947
375.000000	0.545398
374.000000	0.546314
373.000000	0.547400
372.000000	0.548411
371.000000	0.549164
370.000000	0.549853
369.000000	0.550984
368.000000	0.551981
367.000000	0.552910
366.000000	0.553571
365.000000	0.554429
364.000000	0.555058
363.000000	0.556016
362.000000	0.556333
361.000000	0.557145
360.000000	0.557660
359.000000	0.558221
358.000000	0.558645
357.000000	0.559474
356.000000	0.559932
355.000000	0.560653
354.000000	0.561538
353.000000	0.561750
352.000000	0.562567
351.000000	0.562834
350.000000	0.563687
