PE UV       SUBTECH     SPECTRUM    ASCII       PEDS        4.00        
   -1
GNRs_ctab_150ul_orig.Sample.asc
13/12/09
16:39:06.00
13/12/09
16:39:06.00
Administrator

350.000000
1
Lambda 25
1
PerkinElmer UV WinLab 6.0.3.0730 / Lambda25 1.27

480
2
1
0
0
Both on
1
1
1
6x Cell Changer
0
0
0
0
 
 
0
0
0
0
0
 
 
 
0
 
0
326
0
 
0
 
 
 
0
0
0
 
0
 
 
 
0
 
 
0
0
0
0
0
 
 
 
 
0
0


#HDR
-1
-1
#GR
nm
A
1.0
0.0
1100.000000
-1.000000
751
8
1.948543
0.052515
#DATA
1100.000000	0.052834
1099.000000	0.052515
1098.000000	0.052810
1097.000000	0.053697
1096.000000	0.052784
1095.000000	0.053421
1094.000000	0.053596
1093.000000	0.054186
1092.000000	0.053926
1091.000000	0.054172
1090.000000	0.054454
1089.000000	0.055141
1088.000000	0.054700
1087.000000	0.055253
1086.000000	0.055128
1085.000000	0.056039
1084.000000	0.056172
1083.000000	0.056613
1082.000000	0.056957
1081.000000	0.056950
1080.000000	0.057696
1079.000000	0.058023
1078.000000	0.058361
1077.000000	0.059055
1076.000000	0.059171
1075.000000	0.059606
1074.000000	0.060112
1073.000000	0.060479
1072.000000	0.060979
1071.000000	0.061344
1070.000000	0.061917
1069.000000	0.062325
1068.000000	0.062883
1067.000000	0.063321
1066.000000	0.063792
1065.000000	0.064428
1064.000000	0.064540
1063.000000	0.065177
1062.000000	0.065939
1061.000000	0.066218
1060.000000	0.066561
1059.000000	0.067011
1058.000000	0.067577
1057.000000	0.068218
1056.000000	0.068507
1055.000000	0.069051
1054.000000	0.069649
1053.000000	0.070256
1052.000000	0.070925
1051.000000	0.071553
1050.000000	0.072246
1049.000000	0.072767
1048.000000	0.073473
1047.000000	0.074244
1046.000000	0.074909
1045.000000	0.075671
1044.000000	0.076234
1043.000000	0.077133
1042.000000	0.077812
1041.000000	0.078573
1040.000000	0.079317
1039.000000	0.080080
1038.000000	0.080895
1037.000000	0.081715
1036.000000	0.082734
1035.000000	0.083532
1034.000000	0.084324
1033.000000	0.085264
1032.000000	0.085912
1031.000000	0.086891
1030.000000	0.087778
1029.000000	0.088680
1028.000000	0.089479
1027.000000	0.090289
1026.000000	0.091352
1025.000000	0.092382
1024.000000	0.093511
1023.000000	0.094312
1022.000000	0.095499
1021.000000	0.096678
1020.000000	0.097658
1019.000000	0.098838
1018.000000	0.100010
1017.000000	0.101289
1016.000000	0.102417
1015.000000	0.103825
1014.000000	0.104949
1013.000000	0.106551
1012.000000	0.107811
1011.000000	0.109138
1010.000000	0.110535
1009.000000	0.112011
1008.000000	0.113231
1007.000000	0.114714
1006.000000	0.115889
1005.000000	0.117598
1004.000000	0.118818
1003.000000	0.120393
1002.000000	0.121859
1001.000000	0.123417
1000.000000	0.125030
999.000000	0.126695
998.000000	0.128199
997.000000	0.129992
996.000000	0.131737
995.000000	0.133428
994.000000	0.135336
993.000000	0.137130
992.000000	0.139058
991.000000	0.140771
990.000000	0.142964
989.000000	0.144961
988.000000	0.147071
987.000000	0.149337
986.000000	0.151459
985.000000	0.153940
984.000000	0.156201
983.000000	0.158649
982.000000	0.161024
981.000000	0.163473
980.000000	0.165916
979.000000	0.168356
978.000000	0.170855
977.000000	0.173421
976.000000	0.176137
975.000000	0.178558
974.000000	0.181309
973.000000	0.184160
972.000000	0.186920
971.000000	0.189709
970.000000	0.192739
969.000000	0.195716
968.000000	0.198987
967.000000	0.202228
966.000000	0.205518
965.000000	0.208915
964.000000	0.212680
963.000000	0.216007
962.000000	0.219752
961.000000	0.223466
960.000000	0.227191
959.000000	0.231230
958.000000	0.235357
957.000000	0.239602
956.000000	0.244105
955.000000	0.248679
954.000000	0.253213
953.000000	0.257859
952.000000	0.262608
951.000000	0.267251
950.000000	0.272265
949.000000	0.276845
948.000000	0.281787
947.000000	0.286645
946.000000	0.291634
945.000000	0.296510
944.000000	0.301544
943.000000	0.306986
942.000000	0.312236
941.000000	0.317830
940.000000	0.323493
939.000000	0.329299
938.000000	0.335437
937.000000	0.341627
936.000000	0.347831
935.000000	0.354288
934.000000	0.360858
933.000000	0.367611
932.000000	0.374380
931.000000	0.381523
930.000000	0.388696
929.000000	0.395975
928.000000	0.403696
927.000000	0.411392
926.000000	0.419495
925.000000	0.427878
924.000000	0.436345
923.000000	0.444616
922.000000	0.453170
921.000000	0.461572
920.000000	0.470223
919.000000	0.479148
918.000000	0.487817
917.000000	0.496721
916.000000	0.505580
915.000000	0.514568
914.000000	0.523755
913.000000	0.533160
912.000000	0.542973
911.000000	0.552924
910.000000	0.563180
909.000000	0.573711
908.000000	0.584317
907.000000	0.594922
906.000000	0.606188
905.000000	0.617319
904.000000	0.629048
903.000000	0.640843
902.000000	0.653041
901.000000	0.665012
900.000000	0.677541
899.000000	0.690016
898.000000	0.702924
897.000000	0.716201
896.000000	0.730220
895.000000	0.743867
894.000000	0.757830
893.000000	0.771614
892.000000	0.785519
891.000000	0.799487
890.000000	0.813442
889.000000	0.827552
888.000000	0.841678
887.000000	0.855680
886.000000	0.870055
885.000000	0.884780
884.000000	0.899602
883.000000	0.914316
882.000000	0.930148
881.000000	0.945809
880.000000	0.962368
879.000000	0.978580
878.000000	0.994875
877.000000	1.011389
876.000000	1.028239
875.000000	1.044782
874.000000	1.061960
873.000000	1.079375
872.000000	1.096699
871.000000	1.114511
870.000000	1.132018
869.000000	1.149723
868.000000	1.167501
867.000000	1.185784
866.000000	1.204161
865.000000	1.222420
864.000000	1.240666
863.000000	1.259160
862.000000	1.277060
861.000000	1.294849
860.000000	1.313335
859.000000	1.330759
858.000000	1.348700
857.000000	1.365932
856.000000	1.384927
855.000000	1.402048
854.000000	1.419879
853.000000	1.437204
852.000000	1.454999
851.000000	1.472643
850.000000	1.490392
849.000000	1.508379
848.000000	1.526564
847.000000	1.543096
846.000000	1.560718
845.000000	1.577844
844.000000	1.594367
843.000000	1.610936
842.000000	1.627345
841.000000	1.645391
840.000000	1.660491
839.000000	1.676035
838.000000	1.692708
837.000000	1.707421
836.000000	1.723449
835.000000	1.736638
834.000000	1.751300
833.000000	1.765087
832.000000	1.778668
831.000000	1.791886
830.000000	1.803195
829.000000	1.816273
828.000000	1.827293
827.000000	1.836524
826.000000	1.848700
825.000000	1.858532
824.000000	1.868238
823.000000	1.877130
822.000000	1.886776
821.000000	1.894171
820.000000	1.901999
819.000000	1.907139
818.000000	1.914902
817.000000	1.922174
816.000000	1.925842
815.000000	1.932471
814.000000	1.936239
813.000000	1.939500
812.000000	1.943278
811.000000	1.942326
810.000000	1.947836
809.000000	1.948543
808.000000	1.946172
807.000000	1.947726
806.000000	1.947494
805.000000	1.945565
804.000000	1.943510
803.000000	1.936858
802.000000	1.936183
801.000000	1.932898
800.000000	1.925519
799.000000	1.920180
798.000000	1.913338
797.000000	1.905798
796.000000	1.895566
795.000000	1.879702
794.000000	1.870672
793.000000	1.860430
792.000000	1.849087
791.000000	1.837614
790.000000	1.826449
789.000000	1.815710
788.000000	1.803489
787.000000	1.788533
786.000000	1.775770
785.000000	1.762512
784.000000	1.748524
783.000000	1.733268
782.000000	1.717764
781.000000	1.700651
780.000000	1.683090
779.000000	1.664532
778.000000	1.647452
777.000000	1.628893
776.000000	1.610622
775.000000	1.590616
774.000000	1.571851
773.000000	1.551891
772.000000	1.531752
771.000000	1.510636
770.000000	1.490058
769.000000	1.468907
768.000000	1.446343
767.000000	1.423631
766.000000	1.400494
765.000000	1.376648
764.000000	1.352515
763.000000	1.328456
762.000000	1.305623
761.000000	1.282548
760.000000	1.259234
759.000000	1.236115
758.000000	1.212781
757.000000	1.188826
756.000000	1.165732
755.000000	1.141769
754.000000	1.118719
753.000000	1.095191
752.000000	1.071780
751.000000	1.048369
750.000000	1.025202
749.000000	1.002301
748.000000	0.979799
747.000000	0.957658
746.000000	0.936160
745.000000	0.915148
744.000000	0.894220
743.000000	0.873532
742.000000	0.853531
741.000000	0.833581
740.000000	0.813984
739.000000	0.794527
738.000000	0.775417
737.000000	0.756541
736.000000	0.738194
735.000000	0.720198
734.000000	0.702224
733.000000	0.685005
732.000000	0.668361
731.000000	0.651707
730.000000	0.635824
729.000000	0.620169
728.000000	0.604546
727.000000	0.589150
726.000000	0.574210
725.000000	0.559692
724.000000	0.545354
723.000000	0.531406
722.000000	0.517767
721.000000	0.504606
720.000000	0.491862
719.000000	0.479297
718.000000	0.467269
717.000000	0.455847
716.000000	0.444767
715.000000	0.434095
714.000000	0.423842
713.000000	0.413778
712.000000	0.404186
711.000000	0.394859
710.000000	0.385744
709.000000	0.376956
708.000000	0.368298
707.000000	0.359779
706.000000	0.351807
705.000000	0.344351
704.000000	0.336939
703.000000	0.329805
702.000000	0.322685
701.000000	0.315911
700.000000	0.309321
699.000000	0.303056
698.000000	0.296889
697.000000	0.290980
696.000000	0.285385
695.000000	0.279841
694.000000	0.274393
693.000000	0.269089
692.000000	0.264164
691.000000	0.259323
690.000000	0.254680
689.000000	0.250078
688.000000	0.245809
687.000000	0.241741
686.000000	0.237841
685.000000	0.233891
684.000000	0.230094
683.000000	0.226726
682.000000	0.223304
681.000000	0.219778
680.000000	0.216774
679.000000	0.213717
678.000000	0.210741
677.000000	0.208112
676.000000	0.205325
675.000000	0.202928
674.000000	0.200520
673.000000	0.198185
672.000000	0.196109
671.000000	0.193912
670.000000	0.191856
669.000000	0.189769
668.000000	0.188084
667.000000	0.186125
666.000000	0.184411
665.000000	0.182600
664.000000	0.181084
663.000000	0.179387
662.000000	0.178000
661.000000	0.176644
660.000000	0.175185
659.000000	0.174041
658.000000	0.172801
657.000000	0.171732
656.000000	0.170711
655.000000	0.169712
654.000000	0.168750
653.000000	0.167829
652.000000	0.166933
651.000000	0.166208
650.000000	0.165450
649.000000	0.164759
648.000000	0.164193
647.000000	0.163524
646.000000	0.162998
645.000000	0.162641
644.000000	0.162135
643.000000	0.161785
642.000000	0.161386
641.000000	0.161078
640.000000	0.160898
639.000000	0.160714
638.000000	0.160571
637.000000	0.160481
636.000000	0.160468
635.000000	0.160493
634.000000	0.160517
633.000000	0.160779
632.000000	0.160781
631.000000	0.161021
630.000000	0.161339
629.000000	0.161602
628.000000	0.162109
627.000000	0.162441
626.000000	0.162919
625.000000	0.163445
624.000000	0.164018
623.000000	0.164703
622.000000	0.165416
621.000000	0.166263
620.000000	0.166986
619.000000	0.168018
618.000000	0.168792
617.000000	0.169711
616.000000	0.170733
615.000000	0.172009
614.000000	0.173216
613.000000	0.174400
612.000000	0.175883
611.000000	0.177332
610.000000	0.178803
609.000000	0.180376
608.000000	0.181967
607.000000	0.183800
606.000000	0.185653
605.000000	0.187712
604.000000	0.189651
603.000000	0.191805
602.000000	0.193996
601.000000	0.196420
600.000000	0.198924
599.000000	0.201442
598.000000	0.204176
597.000000	0.207041
596.000000	0.210008
595.000000	0.212987
594.000000	0.216310
593.000000	0.219707
592.000000	0.223226
591.000000	0.226734
590.000000	0.230656
589.000000	0.234523
588.000000	0.238605
587.000000	0.242882
586.000000	0.247264
585.000000	0.252051
584.000000	0.256805
583.000000	0.261767
582.000000	0.266777
581.000000	0.272067
580.000000	0.277616
579.000000	0.283298
578.000000	0.289157
577.000000	0.295082
576.000000	0.301460
575.000000	0.308225
574.000000	0.314745
573.000000	0.321578
572.000000	0.328654
571.000000	0.335758
570.000000	0.343019
569.000000	0.350503
568.000000	0.358045
567.000000	0.365565
566.000000	0.373410
565.000000	0.381116
564.000000	0.388897
563.000000	0.396625
562.000000	0.404384
561.000000	0.412163
560.000000	0.419811
559.000000	0.427507
558.000000	0.435331
557.000000	0.442997
556.000000	0.450635
555.000000	0.457897
554.000000	0.465109
553.000000	0.472089
552.000000	0.478918
551.000000	0.485375
550.000000	0.491816
549.000000	0.497985
548.000000	0.504009
547.000000	0.509912
546.000000	0.515626
545.000000	0.521303
544.000000	0.526504
543.000000	0.531488
542.000000	0.536135
541.000000	0.540642
540.000000	0.544838
539.000000	0.548982
538.000000	0.552723
537.000000	0.556450
536.000000	0.559953
535.000000	0.563098
534.000000	0.566165
533.000000	0.569022
532.000000	0.571522
531.000000	0.573945
530.000000	0.576256
529.000000	0.578404
528.000000	0.580279
527.000000	0.582042
526.000000	0.583608
525.000000	0.584888
524.000000	0.585905
523.000000	0.586730
522.000000	0.587415
521.000000	0.587981
520.000000	0.588276
519.000000	0.588059
518.000000	0.587895
517.000000	0.587269
516.000000	0.586460
515.000000	0.585302
514.000000	0.583802
513.000000	0.582053
512.000000	0.579819
511.000000	0.577542
510.000000	0.574647
509.000000	0.571562
508.000000	0.568098
507.000000	0.564227
506.000000	0.560141
505.000000	0.555791
504.000000	0.551215
503.000000	0.546430
502.000000	0.541452
501.000000	0.536301
500.000000	0.531034
499.000000	0.525665
498.000000	0.520230
497.000000	0.515033
496.000000	0.509816
495.000000	0.504644
494.000000	0.499743
493.000000	0.495280
492.000000	0.490788
491.000000	0.486610
490.000000	0.482500
489.000000	0.478672
488.000000	0.475009
487.000000	0.471531
486.000000	0.468341
485.000000	0.465520
484.000000	0.462847
483.000000	0.460289
482.000000	0.458245
481.000000	0.456312
480.000000	0.454496
479.000000	0.452886
478.000000	0.451428
477.000000	0.450271
476.000000	0.449094
475.000000	0.448162
474.000000	0.447304
473.000000	0.446725
472.000000	0.446084
471.000000	0.445619
470.000000	0.445116
469.000000	0.444959
468.000000	0.444720
467.000000	0.444596
466.000000	0.444278
465.000000	0.444399
464.000000	0.444523
463.000000	0.444595
462.000000	0.444883
461.000000	0.445168
460.000000	0.445462
459.000000	0.445859
458.000000	0.446153
457.000000	0.446755
456.000000	0.447110
455.000000	0.447513
454.000000	0.448299
453.000000	0.448888
452.000000	0.449649
451.000000	0.450174
450.000000	0.450893
449.000000	0.451557
448.000000	0.452300
447.000000	0.453027
446.000000	0.453791
445.000000	0.454544
444.000000	0.455372
443.000000	0.456150
442.000000	0.457094
441.000000	0.457948
440.000000	0.458577
439.000000	0.459601
438.000000	0.460404
437.000000	0.461216
436.000000	0.462072
435.000000	0.462841
434.000000	0.463772
433.000000	0.464696
432.000000	0.465496
431.000000	0.466402
430.000000	0.467226
429.000000	0.468197
428.000000	0.469001
427.000000	0.470039
426.000000	0.471010
425.000000	0.471990
424.000000	0.472951
423.000000	0.473884
422.000000	0.474808
421.000000	0.475671
420.000000	0.476661
419.000000	0.477637
418.000000	0.478744
417.000000	0.479848
416.000000	0.481056
415.000000	0.481946
414.000000	0.483112
413.000000	0.484192
412.000000	0.485327
411.000000	0.486409
410.000000	0.487597
409.000000	0.488759
408.000000	0.489912
407.000000	0.490960
406.000000	0.492071
405.000000	0.493412
404.000000	0.494472
403.000000	0.495532
402.000000	0.496719
401.000000	0.498006
400.000000	0.499068
399.000000	0.500259
398.000000	0.501496
397.000000	0.502671
396.000000	0.503885
395.000000	0.505108
394.000000	0.506479
393.000000	0.507598
392.000000	0.508594
391.000000	0.509721
390.000000	0.510933
389.000000	0.511973
388.000000	0.513108
387.000000	0.514368
386.000000	0.515583
385.000000	0.516864
384.000000	0.517794
383.000000	0.519041
382.000000	0.520090
381.000000	0.521608
380.000000	0.523012
379.000000	0.523527
378.000000	0.524894
377.000000	0.525975
376.000000	0.526799
375.000000	0.528037
374.000000	0.528786
373.000000	0.529905
372.000000	0.530924
371.000000	0.531722
370.000000	0.532715
369.000000	0.533592
368.000000	0.534416
367.000000	0.535419
366.000000	0.536416
365.000000	0.536907
364.000000	0.538097
363.000000	0.538683
362.000000	0.539162
361.000000	0.539976
360.000000	0.540758
359.000000	0.541117
358.000000	0.541858
357.000000	0.542388
356.000000	0.543057
355.000000	0.543614
354.000000	0.544542
353.000000	0.544890
352.000000	0.545660
351.000000	0.546690
350.000000	0.547454
