PE UV       SUBTECH     SPECTRUM    ASCII       PEDS        4.00        
   -1
GNRs_ctab_150ul_7W_5mins.Sample.asc
13/12/09
16:55:39.00
13/12/09
16:55:39.00
Administrator

350.000000
1
Lambda 25
1
PerkinElmer UV WinLab 6.0.3.0730 / Lambda25 1.27

480
2
1
0
0
Both on
1
1
1
6x Cell Changer
0
0
0
0
 
 
0
0
0
0
0
 
 
 
0
 
0
326
0
 
0
 
 
 
0
0
0
 
0
 
 
 
0
 
 
0
0
0
0
0
 
 
 
 
0
0


#HDR
-1
-1
#GR
nm
A
1.0
0.0
1100.000000
-1.000000
751
8
0.929678
0.026540
#DATA
1100.000000	0.026983
1099.000000	0.026540
1098.000000	0.027179
1097.000000	0.027572
1096.000000	0.026699
1095.000000	0.027026
1094.000000	0.027019
1093.000000	0.027526
1092.000000	0.027195
1091.000000	0.027181
1090.000000	0.027530
1089.000000	0.028007
1088.000000	0.027427
1087.000000	0.028156
1086.000000	0.027611
1085.000000	0.027960
1084.000000	0.028212
1083.000000	0.028345
1082.000000	0.028505
1081.000000	0.028703
1080.000000	0.028845
1079.000000	0.028801
1078.000000	0.029425
1077.000000	0.029543
1076.000000	0.029296
1075.000000	0.029714
1074.000000	0.030133
1073.000000	0.030082
1072.000000	0.030697
1071.000000	0.030524
1070.000000	0.030667
1069.000000	0.031014
1068.000000	0.031152
1067.000000	0.031336
1066.000000	0.031828
1065.000000	0.031917
1064.000000	0.031779
1063.000000	0.032569
1062.000000	0.032741
1061.000000	0.032981
1060.000000	0.033267
1059.000000	0.033142
1058.000000	0.033691
1057.000000	0.033799
1056.000000	0.034068
1055.000000	0.034228
1054.000000	0.034472
1053.000000	0.034724
1052.000000	0.035058
1051.000000	0.035441
1050.000000	0.035589
1049.000000	0.035756
1048.000000	0.036168
1047.000000	0.036642
1046.000000	0.036998
1045.000000	0.037209
1044.000000	0.037560
1043.000000	0.037950
1042.000000	0.038439
1041.000000	0.038605
1040.000000	0.039082
1039.000000	0.039282
1038.000000	0.040045
1037.000000	0.040260
1036.000000	0.040810
1035.000000	0.041322
1034.000000	0.041593
1033.000000	0.042065
1032.000000	0.042189
1031.000000	0.042685
1030.000000	0.043121
1029.000000	0.043565
1028.000000	0.043913
1027.000000	0.044435
1026.000000	0.044990
1025.000000	0.045377
1024.000000	0.046006
1023.000000	0.046401
1022.000000	0.047032
1021.000000	0.047549
1020.000000	0.047949
1019.000000	0.048520
1018.000000	0.049053
1017.000000	0.049643
1016.000000	0.050090
1015.000000	0.050843
1014.000000	0.051426
1013.000000	0.052195
1012.000000	0.052712
1011.000000	0.053337
1010.000000	0.054009
1009.000000	0.054766
1008.000000	0.055454
1007.000000	0.056058
1006.000000	0.056636
1005.000000	0.057449
1004.000000	0.057975
1003.000000	0.058768
1002.000000	0.059421
1001.000000	0.060135
1000.000000	0.060876
999.000000	0.061674
998.000000	0.062362
997.000000	0.063213
996.000000	0.064025
995.000000	0.064757
994.000000	0.065658
993.000000	0.066345
992.000000	0.067213
991.000000	0.067979
990.000000	0.069078
989.000000	0.069994
988.000000	0.071163
987.000000	0.072130
986.000000	0.073175
985.000000	0.074396
984.000000	0.075367
983.000000	0.076490
982.000000	0.077583
981.000000	0.078717
980.000000	0.080167
979.000000	0.081055
978.000000	0.082463
977.000000	0.083529
976.000000	0.084936
975.000000	0.086083
974.000000	0.087407
973.000000	0.088750
972.000000	0.090033
971.000000	0.091461
970.000000	0.092922
969.000000	0.094449
968.000000	0.095935
967.000000	0.097516
966.000000	0.099222
965.000000	0.100861
964.000000	0.102734
963.000000	0.104357
962.000000	0.106455
961.000000	0.108253
960.000000	0.109994
959.000000	0.112173
958.000000	0.114179
957.000000	0.116248
956.000000	0.118672
955.000000	0.121019
954.000000	0.123233
953.000000	0.125859
952.000000	0.128182
951.000000	0.130547
950.000000	0.133089
949.000000	0.135406
948.000000	0.137988
947.000000	0.140429
946.000000	0.143051
945.000000	0.145554
944.000000	0.148070
943.000000	0.151012
942.000000	0.153762
941.000000	0.156662
940.000000	0.159498
939.000000	0.162529
938.000000	0.165673
937.000000	0.168896
936.000000	0.172113
935.000000	0.175392
934.000000	0.178730
933.000000	0.182172
932.000000	0.185705
931.000000	0.189346
930.000000	0.192917
929.000000	0.196605
928.000000	0.200579
927.000000	0.204520
926.000000	0.208670
925.000000	0.212925
924.000000	0.217334
923.000000	0.221480
922.000000	0.225850
921.000000	0.230028
920.000000	0.234466
919.000000	0.238840
918.000000	0.243190
917.000000	0.247593
916.000000	0.251969
915.000000	0.256419
914.000000	0.260915
913.000000	0.265551
912.000000	0.270350
911.000000	0.275294
910.000000	0.280184
909.000000	0.285295
908.000000	0.290229
907.000000	0.295136
906.000000	0.300527
905.000000	0.305657
904.000000	0.311124
903.000000	0.316449
902.000000	0.321964
901.000000	0.327287
900.000000	0.332807
899.000000	0.338115
898.000000	0.343737
897.000000	0.349307
896.000000	0.355285
895.000000	0.360815
894.000000	0.366580
893.000000	0.371997
892.000000	0.377445
891.000000	0.382900
890.000000	0.388048
889.000000	0.393195
888.000000	0.398158
887.000000	0.403050
886.000000	0.407981
885.000000	0.412907
884.000000	0.417969
883.000000	0.422603
882.000000	0.427441
881.000000	0.432100
880.000000	0.436885
879.000000	0.441433
878.000000	0.445670
877.000000	0.450035
876.000000	0.454402
875.000000	0.458249
874.000000	0.462280
873.000000	0.466005
872.000000	0.469942
871.000000	0.473444
870.000000	0.476857
869.000000	0.480060
868.000000	0.483354
867.000000	0.486498
866.000000	0.489487
865.000000	0.492406
864.000000	0.495154
863.000000	0.497694
862.000000	0.500309
861.000000	0.502496
860.000000	0.504925
859.000000	0.507019
858.000000	0.509004
857.000000	0.511064
856.000000	0.513052
855.000000	0.515036
854.000000	0.516739
853.000000	0.518522
852.000000	0.520497
851.000000	0.522121
850.000000	0.524027
849.000000	0.525737
848.000000	0.527426
847.000000	0.529245
846.000000	0.531091
845.000000	0.532950
844.000000	0.534809
843.000000	0.536565
842.000000	0.538482
841.000000	0.540601
840.000000	0.542575
839.000000	0.544633
838.000000	0.546861
837.000000	0.549079
836.000000	0.551278
835.000000	0.553667
834.000000	0.556222
833.000000	0.558711
832.000000	0.561266
831.000000	0.563848
830.000000	0.566507
829.000000	0.569351
828.000000	0.572335
827.000000	0.575191
826.000000	0.578293
825.000000	0.581581
824.000000	0.584895
823.000000	0.588354
822.000000	0.591954
821.000000	0.595694
820.000000	0.599479
819.000000	0.603198
818.000000	0.607410
817.000000	0.611645
816.000000	0.615862
815.000000	0.620296
814.000000	0.625004
813.000000	0.629609
812.000000	0.634581
811.000000	0.639510
810.000000	0.645084
809.000000	0.650589
808.000000	0.656149
807.000000	0.661691
806.000000	0.667132
805.000000	0.673093
804.000000	0.678655
803.000000	0.684516
802.000000	0.690627
801.000000	0.696625
800.000000	0.703070
799.000000	0.709206
798.000000	0.715742
797.000000	0.722548
796.000000	0.729509
795.000000	0.736815
794.000000	0.743688
793.000000	0.751009
792.000000	0.758358
791.000000	0.765494
790.000000	0.772820
789.000000	0.779848
788.000000	0.787233
787.000000	0.794724
786.000000	0.802058
785.000000	0.809496
784.000000	0.816929
783.000000	0.824180
782.000000	0.831406
781.000000	0.838768
780.000000	0.846170
779.000000	0.853356
778.000000	0.860488
777.000000	0.867421
776.000000	0.874165
775.000000	0.880395
774.000000	0.886502
773.000000	0.892345
772.000000	0.897916
771.000000	0.902878
770.000000	0.907878
769.000000	0.912290
768.000000	0.916441
767.000000	0.920165
766.000000	0.923457
765.000000	0.926266
764.000000	0.928207
763.000000	0.929198
762.000000	0.929678
761.000000	0.929068
760.000000	0.927692
759.000000	0.925462
758.000000	0.922523
757.000000	0.918572
756.000000	0.913974
755.000000	0.908081
754.000000	0.901928
753.000000	0.894740
752.000000	0.886628
751.000000	0.877774
750.000000	0.868322
749.000000	0.858447
748.000000	0.847817
747.000000	0.837009
746.000000	0.825868
745.000000	0.814598
744.000000	0.802836
743.000000	0.790836
742.000000	0.778767
741.000000	0.766295
740.000000	0.753813
739.000000	0.740958
738.000000	0.728274
737.000000	0.715484
736.000000	0.702941
735.000000	0.690712
734.000000	0.678354
733.000000	0.665875
732.000000	0.653530
731.000000	0.640885
730.000000	0.629097
729.000000	0.617432
728.000000	0.605903
727.000000	0.594649
726.000000	0.583584
725.000000	0.572923
724.000000	0.562128
723.000000	0.551681
722.000000	0.541435
721.000000	0.531535
720.000000	0.522048
719.000000	0.512644
718.000000	0.503831
717.000000	0.495632
716.000000	0.487483
715.000000	0.479819
714.000000	0.472274
713.000000	0.465169
712.000000	0.458329
711.000000	0.451720
710.000000	0.445557
709.000000	0.439468
708.000000	0.433724
707.000000	0.428140
706.000000	0.422956
705.000000	0.418169
704.000000	0.413567
703.000000	0.409071
702.000000	0.404786
701.000000	0.400787
700.000000	0.397058
699.000000	0.393613
698.000000	0.390247
697.000000	0.387151
696.000000	0.384379
695.000000	0.381580
694.000000	0.378978
693.000000	0.376611
692.000000	0.374449
691.000000	0.372426
690.000000	0.370639
689.000000	0.368929
688.000000	0.367474
687.000000	0.366175
686.000000	0.364999
685.000000	0.363912
684.000000	0.362838
683.000000	0.362204
682.000000	0.361521
681.000000	0.360819
680.000000	0.360376
679.000000	0.360118
678.000000	0.359661
677.000000	0.359604
676.000000	0.359389
675.000000	0.359468
674.000000	0.359543
673.000000	0.359769
672.000000	0.360142
671.000000	0.360468
670.000000	0.360746
669.000000	0.361095
668.000000	0.361679
667.000000	0.362098
666.000000	0.362607
665.000000	0.363104
664.000000	0.363877
663.000000	0.364514
662.000000	0.365180
661.000000	0.366021
660.000000	0.366703
659.000000	0.367523
658.000000	0.368330
657.000000	0.369198
656.000000	0.370009
655.000000	0.370988
654.000000	0.371838
653.000000	0.372755
652.000000	0.373702
651.000000	0.374690
650.000000	0.375633
649.000000	0.376642
648.000000	0.377554
647.000000	0.378513
646.000000	0.379514
645.000000	0.380652
644.000000	0.381541
643.000000	0.382573
642.000000	0.383594
641.000000	0.384621
640.000000	0.385782
639.000000	0.386726
638.000000	0.387709
637.000000	0.388725
636.000000	0.389804
635.000000	0.390694
634.000000	0.391878
633.000000	0.392923
632.000000	0.393918
631.000000	0.394875
630.000000	0.395962
629.000000	0.396865
628.000000	0.397893
627.000000	0.398859
626.000000	0.399854
625.000000	0.400869
624.000000	0.401807
623.000000	0.402754
622.000000	0.403768
621.000000	0.404799
620.000000	0.405637
619.000000	0.406635
618.000000	0.407567
617.000000	0.408433
616.000000	0.409459
615.000000	0.410439
614.000000	0.411389
613.000000	0.412299
612.000000	0.413349
611.000000	0.414321
610.000000	0.415246
609.000000	0.416286
608.000000	0.417210
607.000000	0.418383
606.000000	0.419422
605.000000	0.420448
604.000000	0.421557
603.000000	0.422705
602.000000	0.423839
601.000000	0.425052
600.000000	0.426337
599.000000	0.427514
598.000000	0.428931
597.000000	0.430166
596.000000	0.431552
595.000000	0.432947
594.000000	0.434582
593.000000	0.436191
592.000000	0.437852
591.000000	0.439471
590.000000	0.441257
589.000000	0.443140
588.000000	0.445026
587.000000	0.447136
586.000000	0.449264
585.000000	0.451535
584.000000	0.453802
583.000000	0.456305
582.000000	0.458774
581.000000	0.461335
580.000000	0.464182
579.000000	0.467039
578.000000	0.470225
577.000000	0.473230
576.000000	0.476750
575.000000	0.480450
574.000000	0.484122
573.000000	0.487844
572.000000	0.491866
571.000000	0.496141
570.000000	0.500339
569.000000	0.504896
568.000000	0.509534
567.000000	0.514205
566.000000	0.519251
565.000000	0.524059
564.000000	0.529113
563.000000	0.534145
562.000000	0.539297
561.000000	0.544563
560.000000	0.549985
559.000000	0.555312
558.000000	0.560717
557.000000	0.566083
556.000000	0.571493
555.000000	0.576560
554.000000	0.581714
553.000000	0.586655
552.000000	0.591488
551.000000	0.596308
550.000000	0.600776
549.000000	0.605208
548.000000	0.609595
547.000000	0.613831
546.000000	0.617936
545.000000	0.621931
544.000000	0.625715
543.000000	0.629291
542.000000	0.632784
541.000000	0.636136
540.000000	0.639301
539.000000	0.642455
538.000000	0.645484
537.000000	0.648280
536.000000	0.651067
535.000000	0.653628
534.000000	0.656265
533.000000	0.658632
532.000000	0.660856
531.000000	0.662968
530.000000	0.665033
529.000000	0.666988
528.000000	0.668773
527.000000	0.670414
526.000000	0.671685
525.000000	0.672829
524.000000	0.673800
523.000000	0.674286
522.000000	0.674757
521.000000	0.674793
520.000000	0.674586
519.000000	0.673801
518.000000	0.672849
517.000000	0.671304
516.000000	0.669471
515.000000	0.667014
514.000000	0.664272
513.000000	0.660950
512.000000	0.657295
511.000000	0.653104
510.000000	0.648203
509.000000	0.643238
508.000000	0.637692
507.000000	0.631791
506.000000	0.625734
505.000000	0.619310
504.000000	0.612364
503.000000	0.605468
502.000000	0.598278
501.000000	0.590904
500.000000	0.583628
499.000000	0.576214
498.000000	0.568880
497.000000	0.561707
496.000000	0.554764
495.000000	0.547915
494.000000	0.541492
493.000000	0.535430
492.000000	0.529523
491.000000	0.523857
490.000000	0.518495
489.000000	0.513354
488.000000	0.508516
487.000000	0.503888
486.000000	0.499702
485.000000	0.495793
484.000000	0.492250
483.000000	0.488775
482.000000	0.485782
481.000000	0.483046
480.000000	0.480322
479.000000	0.477901
478.000000	0.475917
477.000000	0.474047
476.000000	0.472088
475.000000	0.470530
474.000000	0.469115
473.000000	0.467889
472.000000	0.466736
471.000000	0.465588
470.000000	0.464743
469.000000	0.463978
468.000000	0.463289
467.000000	0.462686
466.000000	0.461936
465.000000	0.461588
464.000000	0.461321
463.000000	0.460877
462.000000	0.460825
461.000000	0.460721
460.000000	0.460752
459.000000	0.460672
458.000000	0.460764
457.000000	0.460785
456.000000	0.461121
455.000000	0.460999
454.000000	0.461477
453.000000	0.461869
452.000000	0.462245
451.000000	0.462398
450.000000	0.462950
449.000000	0.463322
448.000000	0.463853
447.000000	0.464207
446.000000	0.464854
445.000000	0.465455
444.000000	0.466055
443.000000	0.466636
442.000000	0.467354
441.000000	0.467855
440.000000	0.468492
439.000000	0.469258
438.000000	0.469944
437.000000	0.470558
436.000000	0.471505
435.000000	0.471929
434.000000	0.472710
433.000000	0.473483
432.000000	0.474194
431.000000	0.475027
430.000000	0.475808
429.000000	0.476625
428.000000	0.477384
427.000000	0.478150
426.000000	0.479128
425.000000	0.480015
424.000000	0.480752
423.000000	0.481688
422.000000	0.482600
421.000000	0.483362
420.000000	0.484290
419.000000	0.485152
418.000000	0.486231
417.000000	0.487324
416.000000	0.488334
415.000000	0.489278
414.000000	0.490397
413.000000	0.491466
412.000000	0.492504
411.000000	0.493589
410.000000	0.494715
409.000000	0.495880
408.000000	0.496919
407.000000	0.498057
406.000000	0.499052
405.000000	0.500330
404.000000	0.501447
403.000000	0.502528
402.000000	0.503564
401.000000	0.504893
400.000000	0.506013
399.000000	0.507123
398.000000	0.508224
397.000000	0.509513
396.000000	0.510896
395.000000	0.511946
394.000000	0.513325
393.000000	0.514453
392.000000	0.515383
391.000000	0.516573
390.000000	0.517682
389.000000	0.518803
388.000000	0.520077
387.000000	0.521254
386.000000	0.522594
385.000000	0.523774
384.000000	0.524676
383.000000	0.525345
382.000000	0.526287
381.000000	0.527941
380.000000	0.529037
379.000000	0.530255
378.000000	0.531297
377.000000	0.532394
376.000000	0.533313
375.000000	0.534645
374.000000	0.535506
373.000000	0.536739
372.000000	0.537573
371.000000	0.538401
370.000000	0.539571
369.000000	0.540706
368.000000	0.541320
367.000000	0.542195
366.000000	0.542998
365.000000	0.543869
364.000000	0.544471
363.000000	0.545273
362.000000	0.545780
361.000000	0.546266
360.000000	0.546823
359.000000	0.547378
358.000000	0.547997
357.000000	0.548555
356.000000	0.548949
355.000000	0.549314
354.000000	0.549988
353.000000	0.550576
352.000000	0.551069
351.000000	0.551665
350.000000	0.552145
